	Index	Fp1	Fp2	C3	C4	P7	P8	O1	O2	other	other	other	other	other	other	other	other	other	other	other	other	Timestamp	other	Timestamp (Formatted)
0	0.0	0.0	0.0	0.0	0.0	0.0	0.0	0.0	0.0	0.0	0.0	0.0	192.0	0.0	0.0	0.0	0.0	0.0	0.0	0.0	0.0	0.0	1660672953.740082	0.0
1	1.0	-7520.490291	-7560.209341	-7736.922233	-7767.38766	-79482.937394	-82418.056717	-131573.566088	-51723.188367	0.018	0.9	0.258	192.0	0.0	144.0	28.0	32.0	8.0	16.0	0.0	0.0	0.0	1660672954.226632	0.0
2	2.0	-7513.069512	-7548.966414	-7715.911593	-7745.572358	-79485.485492	-82413.049926	-131579.556355	-51716.326382	0.018	0.9	0.258	192.0	0.0	0.0	0.0	0.0	0.0	0.0	0.0	0.0	0.0	1660672954.226668	0.0
3	3.0	-7459.648843	-7444.941395	-7757.374079	-7763.967844	-79481.819806	-82367.430015	-131563.396044	-51736.778228	0.018	0.9	0.258	192.0	0.0	0.0	0.0	0.0	0.0	0.0	0.0	0.0	0.0	1660672954.226677	0.0
4	4.0	-7456.743116	-7431.17272	-7781.335149	-7780.150507	-79479.04819	-82357.259972	-131554.097718	-51743.819027	0.018	0.9	0.258	192.0	0.0	0.0	0.0	0.0	0.0	0.0	0.0	0.0	0.0	1660672954.226684	0.0
5	5.0	-7514.075341	-7540.830379	-7741.772561	-7762.962015	-79481.372771	-82404.77978	-131568.961629	-51719.321515	0.018	0.9	0.258	192.0	0.0	0.0	0.0	0.0	0.0	0.0	0.0	0.0	0.0	1660672954.226691	0.0
6	6.0	-7519.551518	-7552.25212	-7710.480119	-7735.402314	-79485.597251	-82409.451295	-131579.578707	-51707.273925	0.018	0.9	0.258	192.0	0.0	0.0	0.0	0.0	0.0	0.0	0.0	0.0	0.0	1660672954.2267	0.0
7	7.0	-7470.556494	-7459.581788	-7746.667593	-7751.272053	-79483.295021	-82369.441672	-131566.592344	-51726.272908	0.018	0.9	0.258	192.0	0.0	0.0	0.0	0.0	0.0	0.0	0.0	0.0	0.0	1660672954.226708	0.0
8	8.0	-7451.892787	-7414.498319	-7779.099975	-7769.622835	-79479.763446	-82345.32414	-131553.449518	-51738.47696	0.02	0.896	0.256	192.0	0.0	160.0	28.0	0.0	8.0	0.0	0.0	0.0	0.0	1660672954.226714	0.0
9	9.0	-7506.051064	-7519.70798	-7746.287614	-7757.821114	-79478.824673	-82389.468836	-131563.150175	-51715.40996	0.02	0.896	0.256	192.0	0.0	0.0	0.0	0.0	0.0	0.0	0.0	0.0	0.0	1660672954.226721	0.0
10	10.0	-7521.987858	-7551.156885	-7704.892183	-7725.053456	-79482.691524	-82402.186978	-131575.823614	-51696.723902	0.02	0.896	0.256	192.0	0.0	0.0	0.0	0.0	0.0	0.0	0.0	0.0	0.0	1660672954.226728	0.0
11	11.0	-7481.374738	-7473.551628	-7734.932927	-7738.218634	-79483.429132	-82371.140405	-131568.246373	-51714.113559	0.02	0.896	0.256	192.0	0.0	0.0	0.0	0.0	0.0	0.0	0.0	0.0	0.0	1660672954.226735	0.0
12	12.0	-7450.596386	-7404.082406	-7775.657806	-7759.69866	-79480.702219	-82337.098698	-131553.47187	-51731.793789	0.02	0.896	0.256	192.0	0.0	0.0	0.0	0.0	0.0	0.0	0.0	0.0	0.0	1660672954.226742	0.0
13	13.0	-7499.703169	-7499.546707	-7753.395468	-7755.362422	-79478.869376	-82376.571879	-131559.931524	-51713.018324	0.02	0.896	0.256	192.0	0.0	0.0	0.0	0.0	0.0	0.0	0.0	0.0	0.0	1660672954.22675	0.0
14	14.0	-7529.676858	-7554.822571	-7708.468462	-7723.734704	-79485.619603	-82401.82935	-131577.768216	-51693.549954	0.02	0.896	0.256	192.0	0.0	0.0	0.0	0.0	0.0	0.0	0.0	0.0	0.0	1660672954.226758	0.0
15	15.0	-7493.109404	-7489.354311	-7724.807587	-7727.087465	-79483.898519	-82373.956725	-131570.235678	-51702.937687	0.02	0.896	0.256	192.0	0.0	0.0	0.0	0.0	0.0	0.0	0.0	0.0	0.0	1660672954.226764	0.0
16	16.0	-7451.356346	-7400.751996	-7769.824001	-7749.618024	-79480.433998	-82331.957797	-131553.293056	-51723.121312	0.02	0.896	0.256	192.0	0.0	0.0	0.0	0.0	0.0	0.0	0.0	0.0	0.0	1660672954.226771	0.0
17	17.0	-7491.209506	-7476.457355	-7760.056288	-7752.859027	-79478.02001	-82362.914963	-131555.639989	-51710.894908	0.02	0.898	0.246	192.0	0.0	160.0	28.0	16.0	7.0	176.0	0.0	0.0	0.0	1660672954.226778	0.0
18	18.0	-7529.498044	-7550.061649	-7710.480119	-7720.583108	-79482.356248	-82394.855606	-131572.515556	-51686.71032	0.02	0.898	0.246	192.0	0.0	0.0	0.0	0.0	0.0	0.0	0.0	0.0	0.0	1660672954.226785	0.0
19	19.0	-7504.307628	-7505.179346	-7717.051532	-7718.258526	-79484.189091	-82377.041266	-131571.733245	-51693.102919	0.02	0.898	0.246	192.0	0.0	0.0	0.0	0.0	0.0	0.0	0.0	0.0	0.0	1660672954.226792	0.0
20	20.0	-7456.318433	-7404.797662	-7765.040727	-7742.063134	-79481.48453	-82331.846038	-131554.857678	-51715.745236	0.02	0.898	0.246	192.0	0.0	0.0	0.0	0.0	0.0	0.0	0.0	0.0	0.0	1660672954.2268	0.0
21	21.0	-7482.782898	-7453.099782	-7766.717108	-7750.333279	-79477.930603	-82349.727434	-131552.220172	-51709.017361	0.02	0.898	0.246	192.0	0.0	0.0	0.0	0.0	0.0	0.0	0.0	0.0	0.0	1660672954.226807	0.0
22	22.0	-7530.34741	-7545.300728	-7717.364456	-7721.834805	-79481.99862	-82390.228795	-131569.833347	-51683.581076	0.02	0.898	0.246	192.0	0.0	0.0	0.0	0.0	0.0	0.0	0.0	0.0	0.0	1660672954.226817	0.0
23	23.0	-7514.45532	-7518.16571	-7710.390712	-7710.323657	-79484.524367	-82379.65642	-131572.783777	-51683.62578	0.02	0.898	0.246	192.0	0.0	0.0	0.0	0.0	0.0	0.0	0.0	0.0	0.0	1660672954.226824	0.0
24	24.0	-7464.834447	-7416.1747	-7758.938701	-7734.977631	-79483.183263	-82335.019986	-131557.584591	-51707.475091	0.02	0.898	0.246	192.0	0.0	0.0	0.0	0.0	0.0	0.0	0.0	0.0	0.0	1660672954.226831	0.0
25	25.0	-7477.664349	-7435.307793	-7772.796783	-7748.67925	-79480.322239	-82339.959722	-131551.795489	-51708.167995	0.02	0.898	0.246	192.0	0.0	0.0	0.0	0.0	0.0	0.0	0.0	0.0	0.0	1660672954.226838	0.0
26	26.0	-7529.967431	-7537.589376	-7725.366381	-7724.114683	-79482.333896	-82384.998487	-131567.307599	-51681.547067	0.02	0.898	0.246	192.0	0.0	0.0	0.0	0.0	0.0	0.0	0.0	0.0	0.0	1660672954.226845	0.0
27	27.0	-7526.3688	-7531.420294	-7707.552041	-7706.38975	-79487.743019	-82384.439693	-131576.091835	-51677.411995	0.02	0.9	0.25	192.0	0.0	160.0	28.0	32.0	7.0	208.0	0.0	0.0	0.0	1660672954.226853	0.0
28	28.0	-7474.937436	-7431.843273	-7750.266224	-7727.087465	-79484.166739	-82340.406756	-131560.020931	-51697.886193	0.02	0.9	0.25	192.0	0.0	0.0	0.0	0.0	0.0	0.0	0.0	0.0	0.0	1660672954.22686	0.0
29	29.0	-7471.584674	-7418.298116	-7774.607274	-7744.18655	-79480.59046	-82330.616692	-131549.783832	-51704.323495	0.02	0.9	0.25	192.0	0.0	0.0	0.0	0.0	0.0	0.0	0.0	0.0	0.0	1660672954.226867	0.0
30	30.0	-7529.922727	-7529.766265	-7737.436323	-7730.35082	-79484.390257	-82381.466911	-131566.145309	-51682.73171	0.02	0.9	0.25	192.0	0.0	0.0	0.0	0.0	0.0	0.0	0.0	0.0	0.0	1660672954.226874	0.0
31	31.0	-7536.382381	-7543.289071	-7708.312	-7706.166232	-79489.821731	-82388.932394	-131577.656457	-51672.852239	0.02	0.9	0.25	192.0	0.0	0.0	0.0	0.0	0.0	0.0	0.0	0.0	0.0	1660672954.22688	0.0
32	32.0	-7487.409709	-7450.931662	-7745.013564	-7723.55589	-79486.178396	-82349.213344	-131563.105472	-51690.577172	0.02	0.9	0.25	192.0	0.0	0.0	0.0	0.0	0.0	0.0	0.0	0.0	0.0	1660672954.226888	0.0
33	33.0	-7470.332977	-7408.284534	-7780.776355	-7745.818227	-79483.607946	-82327.532152	-131550.588495	-51704.435254	0.02	0.9	0.25	192.0	0.0	0.0	0.0	0.0	0.0	0.0	0.0	0.0	0.0	1660672954.226896	0.0
34	34.0	-7524.357143	-7515.014114	-7750.08741	-7737.14575	-79483.227966	-82374.224946	-131560.78089	-51683.648131	0.02	0.9	0.25	192.0	0.0	0.0	0.0	0.0	0.0	0.0	0.0	0.0	0.0	1660672954.226902	0.0
35	35.0	-7543.400829	-7551.22394	-7712.581183	-7709.429587	-79490.089952	-82392.195748	-131576.583573	-51669.879457	0.02	0.9	0.25	192.0	0.0	0.0	0.0	0.0	0.0	0.0	0.0	0.0	0.0	1660672954.22691	0.0
36	36.0	-7500.731349	-7473.149296	-7740.453808	-7721.566584	-79487.452446	-82359.316332	-131565.430053	-51684.184573	0.02	0.9	0.25	192.0	0.0	0.0	0.0	0.0	0.0	0.0	0.0	0.0	0.0	1660672954.226916	0.0
37	37.0	-7470.265921	-7405.15529	-7782.11746	-7745.192378	-79484.233795	-82326.682785	-131550.052053	-51701.797748	0.016	0.89	0.264	192.0	0.0	128.0	27.0	208.0	8.0	64.0	0.0	0.0	0.0	1660672954.226923	0.0
38	38.0	-7519.842091	-7501.625419	-7762.403221	-7744.477122	-79483.675001	-82369.776949	-131557.651646	-51686.822079	0.016	0.89	0.264	192.0	0.0	0.0	0.0	0.0	0.0	0.0	0.0	0.0	0.0	1660672954.22693	0.0
39	39.0	-7546.775943	-7555.783696	-7715.084578	-7711.597706	-79487.094818	-82393.939184	-131572.269687	-51665.56557	0.016	0.89	0.264	192.0	0.0	0.0	0.0	0.0	0.0	0.0	0.0	0.0	0.0	1660672954.226937	0.0
40	40.0	-7511.482538	-7494.316398	-7732.183663	-7717.297401	-79485.396085	-82368.391141	-131564.848908	-51675.243875	0.016	0.89	0.264	192.0	0.0	0.0	0.0	0.0	0.0	0.0	0.0	0.0	0.0	1660672954.226945	0.0
41	41.0	-7471.78584	-7408.463348	-7779.926989	-7743.851274	-79483.116207	-82329.588512	-131548.912114	-51697.327399	0.016	0.89	0.264	192.0	0.0	0.0	0.0	0.0	0.0	0.0	0.0	0.0	0.0	1660672954.226952	0.0
42	42.0	-7511.527242	-7484.548686	-7771.656844	-7749.685079	-79481.328068	-82362.914963	-131551.884896	-51687.425576	0.016	0.89	0.264	192.0	0.0	0.0	0.0	0.0	0.0	0.0	0.0	0.0	0.0	1660672954.226959	0.0
43	43.0	-7549.994594	-7560.611672	-7722.684172	-7719.689038	-79486.401914	-82398.275423	-131569.699236	-51665.56557	0.016	0.89	0.264	192.0	0.0	0.0	0.0	0.0	0.0	0.0	0.0	0.0	0.0	1660672954.226967	0.0
44	44.0	-7524.088922	-7516.645791	-7728.42857	-7718.146767	-79486.938356	-82381.466911	-131567.598172	-51671.466431	0.016	0.89	0.264	192.0	0.0	0.0	0.0	0.0	0.0	0.0	0.0	0.0	0.0	1660672954.226974	0.0
45	45.0	-7477.239666	-7419.192185	-7777.669463	-7744.678288	-79484.189091	-82338.104527	-131550.566143	-51694.734597	0.016	0.89	0.264	192.0	0.0	0.0	0.0	0.0	0.0	0.0	0.0	0.0	0.0	1660672954.226981	0.0
46	46.0	-7503.547669	-7469.125982	-7780.374024	-7755.34007	-79480.948088	-82358.489318	-131548.375672	-51690.130137	0.016	0.89	0.264	192.0	0.0	0.0	0.0	0.0	0.0	0.0	0.0	0.0	0.0	1660672954.226988	0.0
47	47.0	-7552.676803	-7563.964434	-7734.105913	-7730.887262	-79487.743019	-82403.863359	-131568.760463	-51669.432422	0.022	0.898	0.254	192.0	0.0	176.0	28.0	16.0	7.0	240.0	0.0	0.0	0.0	1660672954.226996	0.0
48	48.0	-7538.259928	-7539.511626	-7728.853253	-7722.527709	-79491.319298	-82396.174359	-131572.560259	-51671.779355	0.022	0.898	0.254	192.0	0.0	0.0	0.0	0.0	0.0	0.0	0.0	0.0	0.0	1660672954.227003	0.0
49	49.0	-7485.465108	-7436.224215	-7774.540219	-7745.862931	-79485.932527	-82349.54862	-131553.069538	-51692.030035	0.022	0.898	0.254	192.0	0.0	0.0	0.0	0.0	0.0	0.0	0.0	0.0	0.0	1660672954.22701	0.0
50	50.0	-7496.216297	-7454.217369	-7788.152431	-7760.21275	-79481.506882	-82354.93539	-131545.693463	-51692.879402	0.022	0.898	0.254	192.0	0.0	0.0	0.0	0.0	0.0	0.0	0.0	0.0	0.0	1660672954.227017	0.0
51	51.0	-7549.771076	-7559.382327	-7743.180721	-7739.090352	-79485.351382	-82403.773952	-131563.150175	-51670.281788	0.022	0.898	0.254	192.0	0.0	0.0	0.0	0.0	0.0	0.0	0.0	0.0	0.0	1660672954.227024	0.0
52	52.0	-7544.786637	-7553.861446	-7724.137035	-7721.38777	-79489.151178	-82403.550435	-131570.526251	-51665.923198	0.022	0.898	0.254	192.0	0.0	0.0	0.0	0.0	0.0	0.0	0.0	0.0	0.0	1660672954.227031	0.0
53	53.0	-7496.708035	-7458.151276	-7770.516905	-7746.757	-79488.212405	-82363.965495	-131556.981094	-51689.683102	0.022	0.898	0.254	192.0	0.0	0.0	0.0	0.0	0.0	0.0	0.0	0.0	0.0	1660672954.227037	0.0
54	54.0	-7493.288218	-7444.896691	-7796.0873	-7765.957149	-79484.837292	-82355.874164	-131546.81105	-51697.819137	0.022	0.898	0.254	192.0	0.0	0.0	0.0	0.0	0.0	0.0	0.0	0.0	0.0	1660672954.227045	0.0
55	55.0	-7547.692364	-7554.196722	-7755.965919	-7750.176817	-79485.619603	-82405.53974	-131560.2668	-51674.930951	0.022	0.898	0.254	192.0	0.0	0.0	0.0	0.0	0.0	0.0	0.0	0.0	0.0	1660672954.227052	0.0
56	56.0	-7552.900321	-7568.099507	-7725.008753	-7725.031105	-79489.262937	-82413.049926	-131570.325085	-51664.090355	0.022	0.898	0.254	192.0	0.0	0.0	0.0	0.0	0.0	0.0	0.0	0.0	0.0	1660672954.227059	0.0
57	57.0	-7507.615686	-7481.486497	-7764.280768	-7746.24291	-79487.63126	-82377.22008	-131557.808108	-51684.13987	0.026	0.902	0.252	192.0	0.0	208.0	28.0	48.0	7.0	224.0	0.0	0.0	0.0	1660672954.227074	0.0
58	58.0	-7490.471898	-7440.091066	-7799.752986	-7769.533428	-79484.457312	-82356.701178	-131544.799393	-51698.400283	0.026	0.902	0.252	192.0	0.0	0.0	0.0	0.0	0.0	0.0	0.0	0.0	0.0	1660672954.227081	0.0
59	59.0	-7544.630175	-7547.51355	-7769.779297	-7762.559684	-79484.792588	-82406.165589	-131555.997617	-51679.356596	0.026	0.902	0.252	192.0	0.0	0.0	0.0	0.0	0.0	0.0	0.0	0.0	0.0	1660672954.227088	0.0
60	60.0	-7562.75744	-7583.969245	-7730.99902	-7734.396486	-79490.380524	-82424.449316	-131570.615658	-51664.850314	0.026	0.902	0.252	192.0	0.0	0.0	0.0	0.0	0.0	0.0	0.0	0.0	0.0	1660672954.227096	0.0
61	61.0	-7520.691457	-7508.241535	-7759.05046	-7747.762829	-79487.139521	-82392.620431	-131558.948047	-51678.88721	0.026	0.902	0.252	192.0	0.0	0.0	0.0	0.0	0.0	0.0	0.0	0.0	0.0	1660672954.227103	0.0
62	62.0	-7492.461204	-7443.063848	-7803.753949	-7775.121364	-79485.731362	-82363.093777	-131545.246428	-51699.160242	0.026	0.902	0.252	192.0	0.0	0.0	0.0	0.0	0.0	0.0	0.0	0.0	0.0	1660672954.22711	0.0
63	63.0	-7541.389172	-7539.578681	-7784.285579	-7775.099012	-79484.837292	-82406.679679	-131552.644855	-51684.430442	0.026	0.902	0.252	192.0	0.0	0.0	0.0	0.0	0.0	0.0	0.0	0.0	0.0	1660672954.227117	0.0
64	64.0	-7568.099507	-7594.765138	-7737.212805	-7743.136018	-79488.502978	-82432.07126	-131567.44171	-51664.0233	0.026	0.902	0.252	192.0	0.0	0.0	0.0	0.0	0.0	0.0	0.0	0.0	0.0	1660672954.227125	0.0
65	65.0	-7536.87412	-7537.499969	-7757.932873	-7753.082544	-79489.93349	-82411.015917	-131563.172527	-51676.897905	0.026	0.902	0.252	192.0	0.0	0.0	0.0	0.0	0.0	0.0	0.0	0.0	0.0	1660672954.227132	0.0
66	66.0	-7499.502003	-7454.284424	-7808.045484	-7782.564495	-79489.195882	-82374.426112	-131548.599189	-51700.367236	0.018	0.904	0.256	192.0	0.0	144.0	28.0	64.0	8.0	0.0	0.0	0.0	0.0	1660672954.227139	0.0
67	67.0	-7538.237576	-7530.570928	-7799.015379	-7787.995969	-79486.424266	-82407.439638	-131550.543791	-51689.884268	0.018	0.904	0.256	192.0	0.0	0.0	0.0	0.0	0.0	0.0	0.0	0.0	0.0	1660672954.227147	0.0
68	68.0	-7575.274417	-7605.672789	-7748.321622	-7756.23414	-79489.799379	-82441.637807	-131566.748806	-51666.303178	0.018	0.904	0.256	192.0	0.0	0.0	0.0	0.0	0.0	0.0	0.0	0.0	0.0	1660672954.227154	0.0
69	69.0	-7550.285167	-7562.645681	-7753.507227	-7754.155428	-79489.866434	-82424.516371	-131564.044245	-51670.795878	0.018	0.904	0.256	192.0	0.0	0.0	0.0	0.0	0.0	0.0	0.0	0.0	0.0	1660672954.227161	0.0
70	70.0	-7505.536974	-7467.181381	-7803.843356	-7781.73748	-79487.966536	-82382.182167	-131547.660416	-51694.086396	0.018	0.904	0.256	192.0	0.0	0.0	0.0	0.0	0.0	0.0	0.0	0.0	0.0	1660672954.227168	0.0
71	71.0	-7532.180254	-7516.198756	-7806.570268	-7792.063986	-79484.770237	-82402.388144	-131545.134669	-51688.900791	0.018	0.904	0.256	192.0	0.0	0.0	0.0	0.0	0.0	0.0	0.0	0.0	0.0	1660672954.227175	0.0
72	72.0	-7581.08587	-7610.925449	-7758.379907	-7765.778335	-79489.777027	-82446.175211	-131563.843079	-51665.699681	0.018	0.904	0.256	192.0	0.0	0.0	0.0	0.0	0.0	0.0	0.0	0.0	0.0	1660672954.227182	0.0
73	73.0	-7569.284149	-7590.384196	-7753.350765	-7757.977576	-79493.733286	-82439.514391	-131568.112262	-51667.040785	0.018	0.904	0.256	192.0	0.0	0.0	0.0	0.0	0.0	0.0	0.0	0.0	0.0	1660672954.227188	0.0
74	74.0	-7522.434893	-7493.131756	-7803.485728	-7785.783146	-79492.235719	-82397.381353	-131552.555448	-51690.55482	0.018	0.904	0.256	192.0	0.0	0.0	0.0	0.0	0.0	0.0	0.0	0.0	0.0	1660672954.227197	0.0
75	75.0	-7535.711829	-7513.002457	-7819.53428	-7802.323437	-79489.441751	-82404.153932	-131546.654588	-51692.521774	0.018	0.904	0.256	192.0	0.0	0.0	0.0	0.0	0.0	0.0	0.0	0.0	0.0	1660672954.227203	0.0
76	76.0	-7587.724338	-7617.47451	-7773.087355	-7779.949341	-79490.872263	-82451.427871	-131561.630256	-51667.398413	0.022	0.896	0.256	192.0	0.0	176.0	28.0	0.0	8.0	0.0	0.0	0.0	0.0	1660672954.22721	0.0
77	77.0	-7582.628141	-7611.931278	-7753.194303	-7761.710317	-79493.129789	-82450.533801	-131567.195841	-51660.938759	0.022	0.896	0.256	192.0	0.0	0.0	0.0	0.0	0.0	0.0	0.0	0.0	0.0	1660672954.227217	0.0
78	78.0	-7535.08598	-7517.428102	-7798.657751	-7786.565457	-79490.268766	-82409.764219	-131551.616675	-51681.614123	0.022	0.896	0.256	192.0	0.0	0.0	0.0	0.0	0.0	0.0	0.0	0.0	0.0	1660672954.227224	0.0
79	79.0	-7535.041277	-7508.532108	-7827.513853	-7809.118367	-79489.084123	-82403.885711	-131543.570047	-51691.292428	0.022	0.896	0.256	192.0	0.0	0.0	0.0	0.0	0.0	0.0	0.0	0.0	0.0	1660672954.227231	0.0
80	80.0	-7589.981865	-7618.078007	-7787.906562	-7793.65096	-79489.732324	-82453.439528	-131556.93639	-51667.934855	0.022	0.896	0.256	192.0	0.0	0.0	0.0	0.0	0.0	0.0	0.0	0.0	0.0	1660672954.227238	0.0
81	81.0	-7596.933257	-7633.008973	-7757.217617	-7768.79582	-79493.599176	-82461.15088	-131567.195841	-51656.200189	0.022	0.896	0.256	192.0	0.0	0.0	0.0	0.0	0.0	0.0	0.0	0.0	0.0	1660672954.227246	0.0
82	82.0	-7554.129667	-7548.742896	-7797.383701	-7790.856992	-79492.548644	-82426.103345	-131555.260009	-51675.243875	0.022	0.896	0.256	192.0	0.0	0.0	0.0	0.0	0.0	0.0	0.0	0.0	0.0	1660672954.227253	0.0
83	83.0	-7538.595204	-7508.30859	-7834.018211	-7814.549841	-79489.955841	-82405.651499	-131542.58657	-51688.386701	0.022	0.896	0.256	192.0	0.0	0.0	0.0	0.0	0.0	0.0	0.0	0.0	0.0	1660672954.22726	0.0
84	84.0	-7592.597019	-7615.462853	-7803.463376	-7806.257344	-79489.531158	-82453.350121	-131552.846021	-51667.823096	0.022	0.896	0.256	192.0	0.0	0.0	0.0	0.0	0.0	0.0	0.0	0.0	0.0	1660672954.227267	0.0
85	85.0	-7613.741769	-7654.891331	-7766.493591	-7779.569361	-79497.309565	-82473.153767	-131569.542774	-51654.389698	0.022	0.896	0.256	192.0	0.0	0.0	0.0	0.0	0.0	0.0	0.0	0.0	0.0	1660672954.227273	0.0
86	86.0	-7574.939141	-7581.063519	-7795.707321	-7793.896829	-79495.946109	-82442.710691	-131559.618599	-51668.38189	0.022	0.898	0.258	192.0	0.0	176.0	28.0	16.0	8.0	16.0	0.0	0.0	0.0	1660672954.227282	0.0
87	87.0	-7549.94989	-7517.875137	-7842.824798	-7822.931745	-79496.929586	-82414.413382	-131548.085099	-51689.727806	0.022	0.898	0.258	192.0	0.0	0.0	0.0	0.0	0.0	0.0	0.0	0.0	0.0	1660672954.22729	0.0
88	88.0	-7597.715568	-7612.691237	-7821.83651	-7820.830681	-79494.761466	-82455.76411	-131553.829498	-51672.539314	0.022	0.898	0.258	192.0	0.0	0.0	0.0	0.0	0.0	0.0	0.0	0.0	0.0	1660672954.227297	0.0
89	89.0	-7625.230566	-7668.034156	-7774.026129	-7787.772451	-79498.360097	-82480.596898	-131568.559297	-51650.83577	0.022	0.898	0.258	192.0	0.0	0.0	0.0	0.0	0.0	0.0	0.0	0.0	0.0	1660672954.227304	0.0
90	90.0	-7593.938123	-7610.277249	-7792.309855	-7794.92501	-79498.114228	-82457.038159	-131562.658437	-51660.603483	0.022	0.898	0.258	192.0	0.0	0.0	0.0	0.0	0.0	0.0	0.0	0.0	0.0	1660672954.22731	0.0
91	91.0	-7557.191856	-7527.441684	-7841.506045	-7822.931745	-79496.996641	-82419.017842	-131547.503954	-51682.195268	0.022	0.898	0.258	192.0	0.0	0.0	0.0	0.0	0.0	0.0	0.0	0.0	0.0	1660672954.227317	0.0
92	92.0	-7597.000312	-7602.811766	-7833.571176	-7828.586737	-79495.364963	-82451.874906	-131550.253218	-51671.801707	0.022	0.898	0.258	192.0	0.0	0.0	0.0	0.0	0.0	0.0	0.0	0.0	0.0	1660672954.227324	0.0
93	93.0	-7635.937051	-7678.181848	-7783.458565	-7796.936667	-79499.947071	-82486.363648	-131567.44171	-51648.39943	0.022	0.898	0.258	192.0	0.0	0.0	0.0	0.0	0.0	0.0	0.0	0.0	0.0	1660672954.227331	0.0
94	94.0	-7613.607659	-7637.792246	-7789.515887	-7795.640265	-79501.444638	-82470.270392	-131566.190012	-51653.294462	0.022	0.898	0.258	192.0	0.0	0.0	0.0	0.0	0.0	0.0	0.0	0.0	0.0	1660672954.227339	0.0
95	95.0	-7569.619425	-7543.132608	-7839.695554	-7822.909394	-79499.343574	-82427.243284	-131549.582666	-51675.467393	0.022	0.898	0.258	192.0	0.0	0.0	0.0	0.0	0.0	0.0	0.0	0.0	0.0	1660672954.227346	0.0
96	96.0	-7598.050844	-7593.446385	-7844.568234	-7834.666411	-79498.047173	-82448.075109	-131548.979169	-51671.801707	0.026	0.908	0.264	192.0	0.0	208.0	28.0	96.0	8.0	64.0	0.0	0.0	0.0	1660672954.227353	0.0
97	97.0	-7645.324784	-7685.915552	-7794.813251	-7806.391455	-79502.271652	-82490.096389	-131566.726454	-51647.706526	0.026	0.908	0.264	192.0	0.0	0.0	0.0	0.0	0.0	0.0	0.0	0.0	0.0	1660672954.22736	0.0
98	98.0	-7633.143083	-7663.250883	-7788.77828	-7797.093129	-79506.47378	-82482.630906	-131571.241506	-51648.220616	0.026	0.908	0.264	192.0	0.0	0.0	0.0	0.0	0.0	0.0	0.0	0.0	0.0	1660672954.227367	0.0
99	99.0	-7586.316179	-7565.082021	-7837.639193	-7823.155263	-79504.529179	-82438.977949	-131555.237657	-51669.946512	0.026	0.908	0.264	192.0	0.0	0.0	0.0	0.0	0.0	0.0	0.0	0.0	0.0	1660672954.227374	0.0
100	100.0	-7598.944914	-7583.522211	-7852.860731	-7838.063876	-79501.645804	-82444.029444	-131549.113279	-51671.041747	0.026	0.908	0.264	192.0	0.0	0.0	0.0	0.0	0.0	0.0	0.0	0.0	0.0	1660672954.227381	0.0
101	101.0	-7651.80679	-7687.189601	-7806.212641	-7814.594545	-79504.707993	-82491.124569	-131565.698274	-51646.47718	0.026	0.908	0.264	192.0	0.0	0.0	0.0	0.0	0.0	0.0	0.0	0.0	0.0	1660672954.227389	0.0
102	102.0	-7649.146932	-7683.121584	-7786.811326	-7796.109652	-79509.781839	-82491.057514	-131574.370751	-51641.380983	0.026	0.908	0.264	192.0	0.0	0.0	0.0	0.0	0.0	0.0	0.0	0.0	0.0	1660672954.227396	0.0
103	103.0	-7604.421092	-7590.831231	-7834.331135	-7822.305897	-79510.832371	-82452.523107	-131562.725492	-51665.006776	0.026	0.908	0.264	192.0	0.0	0.0	0.0	0.0	0.0	0.0	0.0	0.0	0.0	1660672954.227403	0.0
104	104.0	-7601.135385	-7576.481411	-7859.923882	-7840.835493	-79508.217217	-82443.448298	-131553.114242	-51672.673425	0.026	0.908	0.264	192.0	0.0	0.0	0.0	0.0	0.0	0.0	0.0	0.0	0.0	1660672954.22741	0.0
105	105.0	-7654.064316	-7682.719252	-7817.768492	-7822.283545	-79508.507789	-82491.146921	-131566.145309	-51648.690003	0.02	0.91	0.252	192.0	0.0	160.0	28.0	112.0	7.0	224.0	0.0	0.0	0.0	1660672954.227417	0.0
106	106.0	-7661.306281	-7698.231363	-7786.654864	-7796.713149	-79514.341594	-82499.707639	-131578.662286	-51638.810532	0.02	0.91	0.252	192.0	0.0	0.0	0.0	0.0	0.0	0.0	0.0	0.0	0.0	1660672954.227423	0.0
107	107.0	-7615.976943	-7611.283077	-7823.870519	-7815.600373	-79512.709917	-82462.93902	-131566.301771	-51657.094259	0.02	0.91	0.252	192.0	0.0	0.0	0.0	0.0	0.0	0.0	0.0	0.0	0.0	1660672954.227431	0.0
108	108.0	-7596.19565	-7565.216132	-7856.749935	-7835.336964	-79508.418382	-82439.022653	-131552.06371	-51668.76187	0.02	0.91	0.252	192.0	0.0	0.0	0.0	0.0	0.0	0.0	0.0	0.0	0.0	1660672954.22744	0.0
109	109.0	-7646.911758	-7667.520066	-7823.155263	-7823.870519	-79507.390202	-82484.754322	-131561.943181	-51647.930044	0.02	0.91	0.252	192.0	0.0	0.0	0.0	0.0	0.0	0.0	0.0	0.0	0.0	1660672954.227446	0.0
110	110.0	-7663.429697	-7701.450014	-7781.513963	-7792.488669	-79513.022842	-82501.741648	-131576.807091	-51632.797913	0.02	0.91	0.252	192.0	0.0	0.0	0.0	0.0	0.0	0.0	0.0	0.0	0.0	1660672954.227454	0.0
111	111.0	-7623.777702	-7627.46574	-7809.945382	-7806.145585	-79512.754621	-82471.6562	-131568.33578	-51648.690003	0.02	0.91	0.252	192.0	0.0	0.0	0.0	0.0	0.0	0.0	0.0	0.0	0.0	1660672954.22746	0.0
112	112.0	-7594.02753	-7559.963472	-7852.771324	-7831.090132	-79511.368812	-82440.14024	-131554.745919	-51668.113669	0.02	0.91	0.252	192.0	0.0	0.0	0.0	0.0	0.0	0.0	0.0	0.0	0.0	1660672954.227467	0.0
113	113.0	-7638.35104	-7649.526912	-7829.637269	-7826.373914	-79508.910121	-82479.613421	-131560.467966	-51651.886302	0.02	0.91	0.252	192.0	0.0	0.0	0.0	0.0	0.0	0.0	0.0	0.0	0.0	1660672954.227474	0.0
114	114.0	-7663.988491	-7702.008808	-7780.418727	-7791.527544	-79513.224007	-82504.133285	-131576.360056	-51631.725029	0.02	0.91	0.252	192.0	0.0	0.0	0.0	0.0	0.0	0.0	0.0	0.0	0.0	1660672954.227482	0.0
115	115.0	-7631.265537	-7642.776685	-7798.00955	-7797.942495	-79514.475705	-82481.088636	-131572.18028	-51643.66086	0.02	0.908	0.258	192.0	0.0	160.0	28.0	96.0	8.0	16.0	0.0	0.0	0.0	1660672954.227489	0.0
116	116.0	-7590.987693	-7555.403716	-7845.194083	-7823.736408	-79512.821676	-82441.615455	-131556.735224	-51666.169067	0.02	0.908	0.258	192.0	0.0	0.0	0.0	0.0	0.0	0.0	0.0	0.0	0.0	1660672954.227497	0.0
117	117.0	-7628.963307	-7628.046885	-7837.102751	-7828.609088	-79512.352289	-82474.114892	-131561.071463	-51658.39066	0.02	0.908	0.258	192.0	0.0	0.0	0.0	0.0	0.0	0.0	0.0	0.0	0.0	1660672954.22751	0.0
118	118.0	-7665.083726	-7700.801814	-7785.738443	-7795.461451	-79517.202618	-82507.866026	-131579.042265	-51636.508302	0.02	0.908	0.258	192.0	0.0	0.0	0.0	0.0	0.0	0.0	0.0	0.0	0.0	1660672954.227517	0.0
119	119.0	-7640.78738	-7658.177037	-7791.438137	-7793.762719	-79520.108345	-82492.510377	-131579.601059	-51644.376116	0.02	0.908	0.258	192.0	0.0	0.0	0.0	0.0	0.0	0.0	0.0	0.0	0.0	1660672954.227524	0.0
120	120.0	-7592.708778	-7558.465905	-7839.829664	-7819.288411	-79517.381432	-82447.918647	-131562.501974	-51667.644282	0.02	0.908	0.258	192.0	0.0	0.0	0.0	0.0	0.0	0.0	0.0	0.0	0.0	1660672954.227531	0.0
121	121.0	-7614.166452	-7600.464833	-7840.67903	-7826.932708	-79513.067545	-82464.6154	-131558.992751	-51662.838657	0.02	0.908	0.258	192.0	0.0	0.0	0.0	0.0	0.0	0.0	0.0	0.0	0.0	1660672954.707513	0.0
122	122.0	-7657.618243	-7688.865982	-7789.001797	-7796.713149	-79516.509714	-82505.809665	-131576.427111	-51639.54814	0.02	0.908	0.258	192.0	0.0	0.0	0.0	0.0	0.0	0.0	0.0	0.0	0.0	1660672954.707592	0.0
123	123.0	-7640.563862	-7662.267406	-7779.837582	-7784.218524	-79518.655481	-82496.13136	-131579.4893	-51640.173988	0.02	0.908	0.258	192.0	0.0	0.0	0.0	0.0	0.0	0.0	0.0	0.0	0.0	1660672954.707601	0.0
124	124.0	-7589.400719	-7560.142286	-7826.932708	-7808.671332	-79515.839161	-82451.383168	-131562.949009	-51663.64332	0.02	0.908	0.258	192.0	0.0	0.0	0.0	0.0	0.0	0.0	0.0	0.0	0.0	1660672954.707608	0.0
125	125.0	-7597.268533	-7572.726318	-7840.187292	-7821.411827	-79511.882903	-82454.691226	-131556.04232	-51665.766736	0.014	0.91	0.26	192.0	0.0	112.0	28.0	112.0	8.0	32.0	0.0	0.0	0.0	1660672954.707617	0.0
126	126.0	-7647.470551	-7673.175058	-7792.376911	-7796.60139	-79514.587464	-82500.780523	-131572.672018	-51642.342108	0.014	0.91	0.26	192.0	0.0	0.0	0.0	0.0	0.0	0.0	0.0	0.0	0.0	1660672954.707624	0.0
127	127.0	-7642.128485	-7666.737755	-7770.919236	-7775.993082	-79518.25315	-82499.305308	-131580.092797	-51636.597709	0.014	0.91	0.26	192.0	0.0	0.0	0.0	0.0	0.0	0.0	0.0	0.0	0.0	1660672954.707644	0.0
128	128.0	-7593.312275	-7570.468792	-7814.862766	-7798.657751	-79515.682699	-82457.30638	-131564.983018	-51657.429535	0.014	0.91	0.26	192.0	0.0	0.0	0.0	0.0	0.0	0.0	0.0	0.0	0.0	1660672954.707654	0.0
129	129.0	-7590.451251	-7555.917806	-7841.863673	-7818.036713	-79513.51458	-82447.82924	-131556.064672	-51666.057308	0.014	0.91	0.26	192.0	0.0	0.0	0.0	0.0	0.0	0.0	0.0	0.0	0.0	1660672954.707661	0.0
130	130.0	-7641.524987	-7659.853418	-7798.38953	-7797.450757	-79511.391164	-82492.28686	-131566.637047	-51639.235215	0.014	0.91	0.26	192.0	0.0	0.0	0.0	0.0	0.0	0.0	0.0	0.0	0.0	1660672954.707668	0.0
131	131.0	-7647.135275	-7673.823258	-7764.705451	-7769.064041	-79514.40865	-82498.210072	-131576.293001	-51625.399485	0.014	0.91	0.26	192.0	0.0	0.0	0.0	0.0	0.0	0.0	0.0	0.0	0.0	1660672954.707675	0.0
132	132.0	-7601.493013	-7586.20442	-7801.272905	-7786.833678	-79511.033536	-82459.876831	-131562.233753	-51641.783314	0.014	0.91	0.26	192.0	0.0	0.0	0.0	0.0	0.0	0.0	0.0	0.0	0.0	1660672954.707681	0.0
133	133.0	-7583.209286	-7541.165655	-7836.901586	-7808.559574	-79508.105458	-82437.055699	-131549.336797	-51655.239064	0.014	0.91	0.26	192.0	0.0	0.0	0.0	0.0	0.0	0.0	0.0	0.0	0.0	1660672954.707688	0.0
134	134.0	-7634.886519	-7643.938976	-7805.631495	-7798.545992	-79508.418382	-82483.770845	-131560.467966	-51636.35184	0.014	0.91	0.26	192.0	0.0	0.0	0.0	0.0	0.0	0.0	0.0	0.0	0.0	1660672954.707695	0.0
135	135.0	-7652.633804	-7680.12645	-7765.085431	-7768.14762	-79514.743926	-82502.255738	-131576.449463	-51622.560814	0.018	0.908	0.258	192.0	0.0	144.0	28.0	96.0	8.0	16.0	0.0	0.0	0.0	1660672954.707702	0.0
136	136.0	-7610.925449	-7604.041112	-7792.265152	-7780.441079	-79513.179304	-82471.455034	-131567.106434	-51638.475256	0.018	0.908	0.258	192.0	0.0	0.0	0.0	0.0	0.0	0.0	0.0	0.0	0.0	1660672954.707709	0.0
137	137.0	-7577.263722	-7531.196777	-7833.124141	-7803.038693	-79509.357155	-82437.592141	-131551.057881	-51656.423707	0.018	0.908	0.258	192.0	0.0	0.0	0.0	0.0	0.0	0.0	0.0	0.0	0.0	1660672954.707716	0.0
138	138.0	-7618.726208	-7617.519214	-7808.447815	-7796.46728	-79504.864455	-82474.897203	-131554.790623	-51639.011698	0.018	0.908	0.258	192.0	0.0	0.0	0.0	0.0	0.0	0.0	0.0	0.0	0.0	1660672954.707722	0.0
139	139.0	-7644.676583	-7672.526857	-7759.05046	-7762.023242	-79508.843065	-82500.802875	-131570.660361	-51619.476273	0.018	0.908	0.258	192.0	0.0	0.0	0.0	0.0	0.0	0.0	0.0	0.0	0.0	1660672954.707728	0.0
140	140.0	-7611.126615	-7613.071217	-7775.858972	-7767.991158	-79509.15599	-82478.182909	-131566.055902	-51631.747381	0.018	0.908	0.258	192.0	0.0	0.0	0.0	0.0	0.0	0.0	0.0	0.0	0.0	1660672954.707735	0.0
141	141.0	-7569.664129	-7524.848881	-7822.596469	-7793.695664	-79506.294966	-82438.463859	-131549.828535	-51654.121477	0.018	0.908	0.258	192.0	0.0	0.0	0.0	0.0	0.0	0.0	0.0	0.0	0.0	1660672954.707743	0.0
142	142.0	-7604.242278	-7593.75931	-7812.180556	-7796.199059	-79503.232778	-82468.437549	-131551.437861	-51644.376116	0.018	0.908	0.258	192.0	0.0	0.0	0.0	0.0	0.0	0.0	0.0	0.0	0.0	1660672954.707749	0.0
143	143.0	-7640.630918	-7667.743584	-7760.570378	-7763.252588	-79507.658423	-82503.507436	-131569.095739	-51622.717276	0.018	0.908	0.258	192.0	0.0	0.0	0.0	0.0	0.0	0.0	0.0	0.0	0.0	1660672954.707756	0.0
144	144.0	-7613.048865	-7622.481301	-7762.403221	-7758.111686	-79506.362022	-82485.380171	-131565.877088	-51626.964107	0.018	0.908	0.258	192.0	0.0	0.0	0.0	0.0	0.0	0.0	0.0	0.0	0.0	1660672954.707762	0.0
145	145.0	-7564.523228	-7523.261907	-7810.191251	-7783.413861	-79502.763391	-82441.16842	-131548.196858	-51650.031108	0.014	0.908	0.252	192.0	0.0	112.0	28.0	96.0	7.0	224.0	0.0	0.0	0.0	1660672954.707768	0.0
146	146.0	-7589.288961	-7568.6583	-7814.683952	-7794.522678	-79501.779914	-82461.463804	-131548.263913	-51649.561721	0.014	0.908	0.252	192.0	0.0	0.0	0.0	0.0	0.0	0.0	0.0	0.0	0.0	1660672954.707775	0.0
147	147.0	-7633.500711	-7658.46761	-7763.118477	-7764.526637	-79505.155028	-82503.105104	-131565.698274	-51625.84652	0.014	0.908	0.252	192.0	0.0	0.0	0.0	0.0	0.0	0.0	0.0	0.0	0.0	1660672954.707781	0.0
148	148.0	-7617.407455	-7633.165435	-7753.484875	-7752.233178	-79507.524312	-82494.767904	-131569.006332	-51626.36061	0.014	0.908	0.252	192.0	0.0	0.0	0.0	0.0	0.0	0.0	0.0	0.0	0.0	1660672954.707789	0.0
149	149.0	-7567.987748	-7532.560233	-7801.786995	-7778.27296	-79505.758525	-82452.366644	-131553.673035	-51651.126343	0.014	0.908	0.252	192.0	0.0	0.0	0.0	0.0	0.0	0.0	0.0	0.0	0.0	1660672954.707796	0.0
150	150.0	-7575.56499	-7544.831341	-7815.332152	-7791.415786	-79501.668155	-82455.607647	-131546.542829	-51653.741497	0.014	0.908	0.252	192.0	0.0	0.0	0.0	0.0	0.0	0.0	0.0	0.0	0.0	1660672954.707803	0.0
151	151.0	-7621.69899	-7643.044906	-7763.699623	-7763.230236	-79500.550568	-82499.014735	-131559.573896	-51627.299384	0.014	0.908	0.252	192.0	0.0	0.0	0.0	0.0	0.0	0.0	0.0	0.0	0.0	1660672954.70781	0.0
152	152.0	-7615.105225	-7636.004107	-7740.789085	-7742.130189	-79503.836275	-82498.724162	-131567.151137	-51622.404352	0.014	0.908	0.252	192.0	0.0	0.0	0.0	0.0	0.0	0.0	0.0	0.0	0.0	1660672954.707816	0.0
153	153.0	-7565.841981	-7539.109294	-7785.090242	-7766.001852	-79502.62928	-82459.027464	-131553.628332	-51646.365422	0.014	0.908	0.252	192.0	0.0	0.0	0.0	0.0	0.0	0.0	0.0	0.0	0.0	1660672954.707823	0.0
154	154.0	-7559.516437	-7521.764341	-7810.705341	-7784.710262	-79500.327051	-82450.086766	-131544.575875	-51657.049555	0.018	0.906	0.266	192.0	0.0	144.0	28.0	80.0	8.0	80.0	0.0	0.0	0.0	1660672954.707829	0.0
155	155.0	-7609.025551	-7624.783531	-7767.365309	-7765.107782	-79499.991775	-82497.494816	-131557.31637	-51634.787218	0.018	0.906	0.266	192.0	0.0	0.0	0.0	0.0	0.0	0.0	0.0	0.0	0.0	1660672954.707837	0.0
156	156.0	-7611.70776	-7636.5629	-7731.937794	-7736.028163	-79502.964557	-82504.557968	-131567.553469	-51623.879567	0.018	0.906	0.266	192.0	0.0	0.0	0.0	0.0	0.0	0.0	0.0	0.0	0.0	1660672954.707843	0.0
157	157.0	-7563.875027	-7547.960585	-7767.544123	-7753.998966	-79500.528216	-82467.990514	-131554.812974	-51643.772619	0.018	0.906	0.266	192.0	0.0	0.0	0.0	0.0	0.0	0.0	0.0	0.0	0.0	1660672954.70785	0.0
158	158.0	-7545.658355	-7503.391207	-7804.290391	-7777.75887	-79500.237644	-82448.566848	-131544.978207	-51662.190457	0.018	0.906	0.266	192.0	0.0	0.0	0.0	0.0	0.0	0.0	0.0	0.0	0.0	1660672954.707856	0.0
159	159.0	-7592.306446	-7600.934219	-7769.1758	-7764.414878	-79497.846007	-82492.510377	-131553.583628	-51642.230349	0.018	0.906	0.266	192.0	0.0	0.0	0.0	0.0	0.0	0.0	0.0	0.0	0.0	1660672954.707873	0.0
160	160.0	-7606.030417	-7632.941918	-7725.679305	-7731.624869	-79501.735211	-82508.715392	-131567.084082	-51627.25468	0.018	0.906	0.266	192.0	0.0	0.0	0.0	0.0	0.0	0.0	0.0	0.0	0.0	1660672954.70788	0.0
161	161.0	-7563.740917	-7557.057745	-7752.367288	-7744.097143	-79500.259995	-82478.585241	-131557.763405	-51643.727916	0.018	0.906	0.266	192.0	0.0	0.0	0.0	0.0	0.0	0.0	0.0	0.0	0.0	1660672954.707888	0.0
162	162.0	-7531.889681	-7487.141488	-7795.863783	-7769.622835	-79498.829484	-82447.091633	-131544.240599	-51665.476163	0.018	0.906	0.266	192.0	0.0	0.0	0.0	0.0	0.0	0.0	0.0	0.0	0.0	1660672954.707894	0.0
163	163.0	-7573.687443	-7573.687443	-7773.959073	-7765.666576	-79496.639013	-82486.00602	-131550.029701	-51651.774544	0.018	0.906	0.266	192.0	0.0	0.0	0.0	0.0	0.0	0.0	0.0	0.0	0.0	1660672954.707901	0.0
164	164.0	-7598.25201	-7625.54349	-7725.075808	-7731.602518	-79501.109362	-82511.710526	-131566.257067	-51633.691982	0.012	0.902	0.262	192.0	0.0	96.0	28.0	48.0	8.0	48.0	0.0	0.0	0.0	1660672954.707908	0.0
165	165.0	-7563.204475	-7564.322062	-7741.124361	-7736.989288	-79500.930548	-82488.30825	-131560.847945	-51646.164256	0.012	0.902	0.262	192.0	0.0	0.0	0.0	0.0	0.0	0.0	0.0	0.0	0.0	1660672954.707914	0.0
166	166.0	-7519.506814	-7474.400994	-7787.280713	-7761.889131	-79497.220158	-82447.18104	-131543.279474	-51668.359538	0.012	0.902	0.262	192.0	0.0	0.0	0.0	0.0	0.0	0.0	0.0	0.0	0.0	1660672954.70792	0.0
167	167.0	-7549.011117	-7537.365858	-7774.987254	-7762.179704	-79491.431056	-82473.444339	-131541.93837	-51657.183666	0.012	0.902	0.262	192.0	0.0	0.0	0.0	0.0	0.0	0.0	0.0	0.0	0.0	1660672954.707927	0.0
168	168.0	-7584.215115	-7609.293772	-7724.673477	-7730.373172	-79496.460199	-82508.357764	-131560.043283	-51637.38002	0.012	0.902	0.262	192.0	0.0	0.0	0.0	0.0	0.0	0.0	0.0	0.0	0.0	1660672954.707935	0.0
169	169.0	-7559.382327	-7567.585417	-7730.149654	-7729.009715	-79499.209464	-82493.69502	-131560.557373	-51646.141904	0.012	0.902	0.262	192.0	0.0	0.0	0.0	0.0	0.0	0.0	0.0	0.0	0.0	1660672954.707941	0.0
170	170.0	-7510.387303	-7467.628416	-7778.898809	-7755.161256	-79496.21433	-82449.773842	-131543.234771	-51670.460602	0.012	0.902	0.262	192.0	0.0	0.0	0.0	0.0	0.0	0.0	0.0	0.0	0.0	1660672954.707947	0.0
171	171.0	-7531.062666	-7507.258058	-7782.25157	-7764.526637	-79493.085086	-82466.694113	-131540.485506	-51668.38189	0.012	0.902	0.262	192.0	0.0	0.0	0.0	0.0	0.0	0.0	0.0	0.0	0.0	1660672954.707955	0.0
172	172.0	-7573.486277	-7594.809841	-7731.401352	-7735.022334	-79496.303737	-82507.709564	-131557.606942	-51646.141904	0.012	0.902	0.262	192.0	0.0	0.0	0.0	0.0	0.0	0.0	0.0	0.0	0.0	1660672954.707962	0.0
173	173.0	-7553.257949	-7565.909036	-7718.81732	-7719.554927	-79495.409667	-82495.907843	-131557.606942	-51644.510227	0.012	0.902	0.262	192.0	0.0	0.0	0.0	0.0	0.0	0.0	0.0	0.0	0.0	1660672954.707968	0.0
174	174.0	-7502.631247	-7464.722689	-7767.208846	-7745.460599	-79493.174492	-82452.456051	-131541.536038	-51669.454774	0.014	0.906	0.256	192.0	0.0	112.0	28.0	80.0	8.0	0.0	0.0	0.0	0.0	1660672954.707974	0.0
175	175.0	-7512.041332	-7477.507887	-7784.620855	-7762.269111	-79492.436885	-82458.088691	-131537.535076	-51676.45087	0.014	0.906	0.256	192.0	0.0	0.0	0.0	0.0	0.0	0.0	0.0	0.0	0.0	1660672954.707982	0.0
176	176.0	-7559.94112	-7575.252065	-7737.52573	-7738.106875	-79495.029687	-82504.177988	-131553.874201	-51654.367346	0.014	0.906	0.256	192.0	0.0	0.0	0.0	0.0	0.0	0.0	0.0	0.0	0.0	1660672954.707989	0.0
177	177.0	-7552.6321	-7567.764231	-7714.97282	-7716.984477	-79498.203635	-82502.993346	-131560.892649	-51649.718183	0.014	0.906	0.256	192.0	0.0	0.0	0.0	0.0	0.0	0.0	0.0	0.0	0.0	1660672954.707995	0.0
178	178.0	-7502.094805	-7470.981177	-7757.530541	-7739.179759	-79495.230853	-82461.441453	-131545.380538	-51672.002872	0.014	0.906	0.256	192.0	0.0	0.0	0.0	0.0	0.0	0.0	0.0	0.0	0.0	1660672954.708002	0.0
179	179.0	-7495.277523	-7451.199883	-7783.972655	-7757.977576	-79492.839216	-82451.472575	-131536.104564	-51683.066986	0.014	0.906	0.256	192.0	0.0	0.0	0.0	0.0	0.0	0.0	0.0	0.0	0.0	1660672954.708008	0.0
180	180.0	-7545.323079	-7553.056783	-7743.67246	-7740.364401	-79494.180321	-82498.835921	-131550.208515	-51662.972768	0.014	0.906	0.256	192.0	0.0	0.0	0.0	0.0	0.0	0.0	0.0	0.0	0.0	1660672954.708014	0.0
181	181.0	-7548.295861	-7565.216132	-7709.071959	-7711.508299	-79497.488379	-82505.675555	-131560.40091	-51652.310986	0.014	0.906	0.256	192.0	0.0	0.0	0.0	0.0	0.0	0.0	0.0	0.0	0.0	1660672954.708021	0.0
182	182.0	-7502.675951	-7478.267846	-7745.929986	-7730.462579	-79496.460199	-82470.38215	-131548.822707	-51672.963997	0.014	0.906	0.256	192.0	0.0	0.0	0.0	0.0	0.0	0.0	0.0	0.0	0.0	1660672954.708028	0.0
183	183.0	-7485.442756	-7433.050267	-7784.352634	-7755.116553	-79497.041344	-82450.466746	-131539.345567	-51692.007684	0.014	0.906	0.256	192.0	0.0	0.0	0.0	0.0	0.0	0.0	0.0	0.0	0.0	1660672954.708035	0.0
184	184.0	-7531.62146	-7529.878024	-7750.176817	-7742.107837	-79494.80617	-82493.091523	-131547.660416	-51672.338149	0.014	0.908	0.248	192.0	0.0	112.0	28.0	96.0	7.0	192.0	0.0	0.0	0.0	1660672954.708041	0.0
185	185.0	-7543.624347	-7560.812838	-7704.355741	-7706.590916	-79496.750772	-82506.860197	-131559.23862	-51655.149657	0.014	0.908	0.248	192.0	0.0	0.0	0.0	0.0	0.0	0.0	0.0	0.0	0.0	1660672954.708048	0.0
186	186.0	-7504.84407	-7487.655579	-7732.541291	-7720.091369	-79497.220158	-82478.249965	-131551.840192	-51672.114631	0.014	0.908	0.248	192.0	0.0	0.0	0.0	0.0	0.0	0.0	0.0	0.0	0.0	1660672954.708054	0.0
187	187.0	-7473.015186	-7416.353514	-7774.361405	-7743.627756	-79494.783818	-82445.169383	-131537.043337	-51691.381835	0.014	0.908	0.248	192.0	0.0	0.0	0.0	0.0	0.0	0.0	0.0	0.0	0.0	1660672954.708061	0.0
188	188.0	-7514.611782	-7501.51366	-7751.383811	-7738.106875	-79492.034554	-82482.653258	-131542.161887	-51676.249704	0.014	0.908	0.248	192.0	0.0	0.0	0.0	0.0	0.0	0.0	0.0	0.0	0.0	1660672954.708068	0.0
189	189.0	-7541.724448	-7557.169504	-7703.081692	-7704.378093	-79497.711897	-82509.229482	-131559.618599	-51658.211846	0.014	0.908	0.248	192.0	0.0	0.0	0.0	0.0	0.0	0.0	0.0	0.0	0.0	1660672954.708075	0.0
190	190.0	-7509.046198	-7499.345541	-7717.677381	-7708.312	-79497.309565	-82486.00602	-131554.12007	-51668.605407	0.014	0.908	0.248	192.0	0.0	0.0	0.0	0.0	0.0	0.0	0.0	0.0	0.0	1660672954.708081	0.0
191	191.0	-7471.763488	-7414.565374	-7766.448887	-7735.916404	-79497.778952	-82449.259752	-131540.999596	-51693.259381	0.014	0.908	0.248	192.0	0.0	0.0	0.0	0.0	0.0	0.0	0.0	0.0	0.0	1660672954.708088	0.0
192	192.0	-7505.760492	-7481.374738	-7756.636471	-7738.442151	-79495.499074	-82478.227613	-131543.234771	-51684.206925	0.014	0.908	0.248	192.0	0.0	0.0	0.0	0.0	0.0	0.0	0.0	0.0	0.0	1660672954.708095	0.0
193	193.0	-7540.383344	-7553.79439	-7703.036988	-7703.305209	-79498.494208	-82510.99527	-131559.573896	-51660.938759	0.02	0.904	0.254	192.0	0.0	160.0	28.0	64.0	7.0	240.0	0.0	0.0	0.0	1660672954.708102	0.0
194	194.0	-7515.550556	-7511.214317	-7704.288686	-7697.694921	-79498.762429	-82494.142055	-131557.763405	-51665.476163	0.02	0.904	0.254	192.0	0.0	0.0	0.0	0.0	0.0	0.0	0.0	0.0	0.0	1660672954.708108	0.0
195	195.0	-7470.556494	-7415.168871	-7752.613157	-7723.265317	-79496.840179	-82451.629037	-131541.781907	-51689.101957	0.02	0.904	0.254	192.0	0.0	0.0	0.0	0.0	0.0	0.0	0.0	0.0	0.0	1660672954.708116	0.0
196	196.0	-7492.483555	-7456.899578	-7754.647166	-7731.222538	-79493.822693	-82468.035217	-131539.479678	-51685.816251	0.02	0.904	0.254	192.0	0.0	0.0	0.0	0.0	0.0	0.0	0.0	0.0	0.0	1660672954.708122	0.0
197	197.0	-7535.577719	-7544.808989	-7702.433491	-7700.265372	-79497.1084	-82508.69304	-131556.690521	-51662.413974	0.02	0.904	0.254	192.0	0.0	0.0	0.0	0.0	0.0	0.0	0.0	0.0	0.0	1660672954.708129	0.0
198	198.0	-7522.211376	-7521.563175	-7692.665779	-7687.68134	-79501.265824	-82501.607537	-131561.853774	-51663.755079	0.02	0.904	0.254	192.0	0.0	0.0	0.0	0.0	0.0	0.0	0.0	0.0	0.0	1660672954.708135	0.0
199	199.0	-7476.189134	-7424.847177	-7740.967898	-7713.654067	-79501.399934	-82460.592086	-131548.487431	-51689.101957	0.02	0.904	0.254	192.0	0.0	0.0	0.0	0.0	0.0	0.0	0.0	0.0	0.0	1660672954.708142	0.0
200	200.0	-7484.012244	-7435.91129	-7754.736573	-7726.305154	-79498.471856	-82463.386054	-131542.295997	-51692.611181	0.02	0.904	0.254	192.0	0.0	0.0	0.0	0.0	0.0	0.0	0.0	0.0	0.0	1660672954.708148	0.0
201	201.0	-7531.330887	-7533.811931	-7705.518032	-7700.10891	-79499.880016	-82507.821322	-131557.629294	-51669.164201	0.02	0.904	0.254	192.0	0.0	0.0	0.0	0.0	0.0	0.0	0.0	0.0	0.0	1660672954.708154	0.0
202	202.0	-7524.535957	-7526.547614	-7680.662892	-7676.907799	-79502.49517	-82505.854369	-131564.513631	-51663.084526	0.02	0.904	0.254	192.0	0.0	0.0	0.0	0.0	0.0	0.0	0.0	0.0	0.0	1660672954.708162	0.0
203	203.0	-7477.17261	-7431.463293	-7722.997096	-7698.678398	-79501.377583	-82465.844746	-131551.102585	-51685.570381	0.014	0.896	0.256	192.0	0.0	112.0	28.0	0.0	8.0	0.0	0.0	0.0	0.0	1660672954.708169	0.0
204	204.0	-7470.869418	-7412.084331	-7747.963994	-7715.889241	-79498.78478	-82454.892392	-131541.625445	-51695.539259	0.014	0.896	0.256	192.0	0.0	0.0	0.0	0.0	0.0	0.0	0.0	0.0	0.0	1660672954.708175	0.0
205	205.0	-7519.529166	-7513.583602	-7705.227459	-7696.130299	-79498.360097	-82500.646412	-131553.98596	-51673.232218	0.014	0.896	0.256	192.0	0.0	0.0	0.0	0.0	0.0	0.0	0.0	0.0	0.0	1660672954.708181	0.0
206	206.0	-7526.212338	-7529.565099	-7672.348043	-7669.419964	-79504.55153	-82510.682346	-131567.374655	-51664.559742	0.014	0.896	0.256	192.0	0.0	0.0	0.0	0.0	0.0	0.0	0.0	0.0	0.0	1660672954.708188	0.0
207	207.0	-7482.492326	-7445.343726	-7708.021427	-7687.457822	-79503.635109	-82475.567755	-131556.243486	-51684.095166	0.014	0.896	0.256	192.0	0.0	0.0	0.0	0.0	0.0	0.0	0.0	0.0	0.0	1660672954.708194	0.0
208	208.0	-7464.923854	-7400.997865	-7744.030087	-7710.144843	-79503.053964	-82454.288894	-131545.693463	-51700.791919	0.014	0.896	0.256	192.0	0.0	0.0	0.0	0.0	0.0	0.0	0.0	0.0	0.0	1660672954.708201	0.0
209	209.0	-7510.879041	-7497.222125	-7709.317828	-7696.934962	-79500.282347	-82497.181892	-131553.740091	-51680.317721	0.014	0.896	0.256	192.0	0.0	0.0	0.0	0.0	0.0	0.0	0.0	0.0	0.0	1660672954.708208	0.0
210	210.0	-7525.787655	-7531.464998	-7664.703746	-7663.496752	-79503.724516	-82513.453962	-131567.06173	-51663.844486	0.014	0.896	0.256	192.0	0.0	0.0	0.0	0.0	0.0	0.0	0.0	0.0	0.0	1660672954.708215	0.0
211	211.0	-7488.035558	-7462.107535	-7691.436433	-7676.550171	-79503.568054	-82485.223709	-131559.216268	-51679.691873	0.014	0.896	0.256	192.0	0.0	0.0	0.0	0.0	0.0	0.0	0.0	0.0	0.0	1660672954.708221	0.0
212	212.0	-7459.73825	-7395.432281	-7735.849349	-7703.260506	-79503.657461	-82455.227668	-131547.101622	-51701.171899	0.014	0.896	0.256	192.0	0.0	0.0	0.0	0.0	0.0	0.0	0.0	0.0	0.0	1660672954.708228	0.0
213	213.0	-7501.37955	-7481.441794	-7713.452901	-7699.21484	-79500.215292	-82492.80095	-131551.728434	-51685.436271	0.02	0.896	0.256	192.0	0.0	160.0	28.0	0.0	8.0	0.0	0.0	0.0	0.0	1660672954.708234	0.0
214	214.0	-7526.637021	-7536.181216	-7663.429697	-7664.837857	-79503.813923	-82517.991366	-131567.329951	-51665.476163	0.02	0.896	0.256	192.0	0.0	0.0	0.0	0.0	0.0	0.0	0.0	0.0	0.0	1660672954.708242	0.0
215	215.0	-7498.317361	-7483.341692	-7681.758127	-7673.309168	-79507.546664	-82499.260604	-131566.301771	-51679.446003	0.02	0.896	0.256	192.0	0.0	0.0	0.0	0.0	0.0	0.0	0.0	0.0	0.0	1660672954.708249	0.0
216	216.0	-7461.504038	-7399.723816	-7730.663744	-7701.494718	-79508.664251	-82462.424929	-131553.762442	-51704.099978	0.02	0.896	0.256	192.0	0.0	0.0	0.0	0.0	0.0	0.0	0.0	0.0	0.0	1660672954.708256	0.0
217	217.0	-7492.125927	-7464.365061	-7718.035009	-7701.78529	-79503.411591	-82488.643526	-131553.069538	-51692.633533	0.02	0.896	0.256	192.0	0.0	0.0	0.0	0.0	0.0	0.0	0.0	0.0	0.0	1660672954.708262	0.0
218	218.0	-7526.189986	-7534.57189	-7664.927264	-7666.894217	-79507.457257	-82521.344128	-131570.682713	-51670.840582	0.02	0.896	0.256	192.0	0.0	0.0	0.0	0.0	0.0	0.0	0.0	0.0	0.0	1660672954.708294	0.0
219	219.0	-7502.92182	-7494.85284	-7668.548246	-7663.876732	-79510.027708	-82507.53075	-131571.465024	-51678.440175	0.02	0.896	0.256	192.0	0.0	0.0	0.0	0.0	0.0	0.0	0.0	0.0	0.0	1660672954.708301	0.0
220	220.0	-7457.972462	-7407.032836	-7724.517015	-7700.444186	-79504.864455	-82470.538613	-131552.108413	-51703.563536	0.02	0.896	0.256	192.0	0.0	0.0	0.0	0.0	0.0	0.0	0.0	0.0	0.0	1660672954.708308	0.0
221	221.0	-7481.218276	-7458.419497	-7740.766733	-7726.685134	-79496.035516	-82494.007944	-131543.167715	-51700.836623	0.02	0.896	0.256	192.0	0.0	0.0	0.0	0.0	0.0	0.0	0.0	0.0	0.0	1660672954.708315	0.0
222	222.0	-7527.374628	-7557.281263	-7703.484023	-7714.436378	-79492.682754	-82539.739614	-131552.622503	-51675.243875	0.02	0.896	0.256	192.0	0.0	0.0	0.0	0.0	0.0	0.0	0.0	0.0	0.0	1660672954.708323	0.0
223	223.0	-7518.433931	-7547.602957	-7708.691979	-7720.761921	-79490.604042	-82537.102108	-131550.14146	-51673.701605	0.016	0.906	0.258	192.0	0.0	128.0	28.0	80.0	8.0	16.0	0.0	0.0	0.0	1660672954.70833	0.0
224	224.0	-7475.183305	-7462.331052	-7770.271035	-7764.459582	-79482.780931	-82499.148846	-131527.186218	-51694.533431	0.016	0.906	0.258	192.0	0.0	0.0	0.0	0.0	0.0	0.0	0.0	0.0	0.0	1660672954.708337	0.0
225	225.0	-7487.409709	-7483.900486	-7797.070777	-7793.986236	-79475.471911	-82505.988479	-131515.228035	-51695.15928	0.016	0.906	0.258	192.0	0.0	0.0	0.0	0.0	0.0	0.0	0.0	0.0	0.0	1660672954.708347	0.0
226	226.0	-7540.85273	-7592.373501	-7757.485838	-7779.748175	-79478.02001	-82555.609352	-131530.717794	-51672.025224	0.016	0.906	0.258	192.0	0.0	0.0	0.0	0.0	0.0	0.0	0.0	0.0	0.0	1660672954.708354	0.0
227	227.0	-7537.142341	-7589.825402	-7735.067038	-7759.989233	-79483.317373	-82555.855221	-131539.993768	-51666.861971	0.016	0.906	0.258	192.0	0.0	0.0	0.0	0.0	0.0	0.0	0.0	0.0	0.0	1660672954.708361	0.0
228	228.0	-7488.169669	-7489.242552	-7769.891056	-7773.199114	-79485.351382	-82511.464657	-131530.136648	-51688.520812	0.016	0.906	0.258	192.0	0.0	0.0	0.0	0.0	0.0	0.0	0.0	0.0	0.0	1660672954.70837	0.0
229	229.0	-7476.703224	-7458.106572	-7781.022225	-7773.623797	-79486.513673	-82492.80095	-131525.398079	-51697.439158	0.016	0.906	0.258	192.0	0.0	0.0	0.0	0.0	0.0	0.0	0.0	0.0	0.0	1660672954.708378	0.0
230	230.0	-7521.227899	-7548.206454	-7725.075808	-7737.637489	-79492.88392	-82534.084622	-131546.028739	-51678.149602	0.016	0.906	0.258	192.0	0.0	0.0	0.0	0.0	0.0	0.0	0.0	0.0	0.0	1660672954.708385	0.0
231	231.0	-7518.635096	-7546.597129	-7674.382052	-7689.916514	-79501.936376	-82534.911637	-131563.820727	-51669.141849	0.016	0.906	0.258	192.0	0.0	0.0	0.0	0.0	0.0	0.0	0.0	0.0	0.0	1660672954.708392	0.0
232	232.0	-7465.862628	-7448.584729	-7695.973837	-7692.196392	-79502.852798	-82493.225633	-131555.863506	-51689.01255	0.016	0.906	0.258	192.0	0.0	0.0	0.0	0.0	0.0	0.0	0.0	0.0	0.0	1660672954.708399	0.0
233	233.0	-7439.264052	-7393.711197	-7724.114683	-7707.03795	-79501.377583	-82467.565831	-131545.425242	-51706.379855	0.018	0.904	0.25	192.0	0.0	144.0	28.0	64.0	7.0	208.0	0.0	0.0	0.0	1660672954.708406	0.0
234	234.0	-7480.078337	-7487.521468	-7689.692997	-7696.420872	-79497.398972	-82511.062325	-131552.890724	-51688.900791	0.018	0.904	0.25	192.0	0.0	0.0	0.0	0.0	0.0	0.0	0.0	0.0	0.0	1660672954.708413	0.0
235	235.0	-7488.884925	-7505.246401	-7641.122656	-7657.797057	-79504.506827	-82522.037032	-131569.721588	-51674.752137	0.018	0.904	0.25	192.0	0.0	0.0	0.0	0.0	0.0	0.0	0.0	0.0	0.0	1660672954.708422	0.0
236	236.0	-7442.348593	-7336.155455	-7603.214097	-7571.139344	-79535.843973	-82435.960464	-131591.872167	-51680.831812	0.018	0.904	0.25	192.0	0.0	0.0	0.0	0.0	0.0	0.0	0.0	0.0	0.0	1660672954.70843	0.0
237	237.0	-7413.49249	-7255.800933	-7605.672789	-7541.143303	-79546.885734	-82385.825501	-131592.855643	-51698.422634	0.018	0.904	0.25	192.0	0.0	0.0	0.0	0.0	0.0	0.0	0.0	0.0	0.0	1660672954.708437	0.0
238	238.0	-7449.322337	-7311.74735	-7557.482428	-7500.440776	-79554.284162	-82409.272481	-131610.424115	-51684.922181	0.018	0.904	0.25	192.0	0.0	0.0	0.0	0.0	0.0	0.0	0.0	0.0	0.0	1660672954.708444	0.0
239	239.0	-7471.227046	-7343.799751	-7484.146355	-7433.899633	-79564.990647	-82422.415307	-131634.541647	-51664.805611	0.018	0.904	0.25	192.0	0.0	0.0	0.0	0.0	0.0	0.0	0.0	0.0	0.0	1660672954.708451	0.0
240	240.0	-7434.547834	-7281.974826	-7475.406823	-7406.04936	-79574.020752	-82383.947955	-131639.749603	-51674.640378	0.018	0.904	0.25	192.0	0.0	0.0	0.0	0.0	0.0	0.0	0.0	0.0	0.0	1660672954.708458	0.0
241	241.0	-7390.872525	-7164.047022	-7494.919896	-7392.548906	-79582.603822	-82326.414564	-131636.486249	-51695.069873	0.018	0.904	0.25	192.0	0.0	0.0	0.0	0.0	0.0	0.0	0.0	0.0	0.0	1660672955.187504	0.0
242	242.0	-7419.527461	-7215.187814	-7464.119192	-7366.598531	-79585.710715	-82342.530172	-131646.052795	-51684.832774	0.082	0.896	0.208	192.0	2.0	144.0	28.0	0.0	6.0	128.0	0.0	0.0	0.0	1660672955.187536	0.0
243	243.0	-7448.897654	-7284.880553	-7395.767557	-7312.373199	-79592.818569	-82365.932449	-131668.046912	-51661.162276	0.082	0.896	0.208	192.0	0.0	0.0	0.0	0.0	0.0	0.0	0.0	0.0	0.0	1660672955.187544	0.0
244	244.0	-7420.756807	-7210.426892	-7378.735528	-7280.924294	-79602.318061	-82336.98694	-131676.629982	-51665.654977	0.082	0.896	0.208	192.0	0.0	0.0	0.0	0.0	0.0	0.0	0.0	0.0	0.0	1660672955.187551	0.0
245	245.0	-7373.371109	-7101.797414	-7407.658685	-7278.867934	-79611.549331	-82281.934593	-131672.830185	-51690.308951	0.082	0.896	0.208	192.0	0.0	0.0	0.0	0.0	0.0	0.0	0.0	0.0	0.0	1660672955.187558	0.0
246	246.0	-7392.303037	-7134.833292	-7394.560563	-7265.903922	-79615.259721	-82288.774227	-131678.082845	-51687.98437	0.082	0.896	0.208	192.0	0.0	0.0	0.0	0.0	0.0	0.0	0.0	0.0	0.0	1660672955.187564	0.0
247	247.0	-7432.044438	-7215.500738	-7332.601527	-7222.072151	-79622.367575	-82324.089983	-131701.59688	-51665.990253	0.082	0.896	0.208	192.0	0.0	0.0	0.0	0.0	0.0	0.0	0.0	0.0	0.0	1660672955.18757	0.0
248	248.0	-7409.223307	-7186.354063	-7310.115672	-7195.630037	-79623.686328	-82307.661451	-131705.843712	-51663.308044	0.082	0.896	0.208	192.0	0.0	0.0	0.0	0.0	0.0	0.0	0.0	0.0	0.0	1660672955.187577	0.0
249	249.0	-7360.250635	-7083.312521	-7353.299243	-7216.260697	-79626.681462	-82263.404997	-131695.941889	-51689.548992	0.082	0.896	0.208	192.0	0.0	0.0	0.0	0.0	0.0	0.0	0.0	0.0	0.0	1660672955.187585	0.0
250	250.0	-7369.392499	-7087.872277	-7366.8444	-7227.525977	-79629.520134	-82265.975447	-131695.83013	-51696.299219	0.082	0.896	0.208	192.0	0.0	0.0	0.0	0.0	0.0	0.0	0.0	0.0	0.0	1660672955.187591	0.0
251	251.0	-7414.945354	-7190.958523	-7312.999047	-7195.719444	-79631.107108	-82306.342698	-131711.364592	-51670.102974	0.082	0.896	0.208	192.0	0.0	0.0	0.0	0.0	0.0	0.0	0.0	0.0	0.0	1660672955.187598	0.0
252	252.0	-7409.178604	-7184.856496	-7284.344111	-7167.846819	-79635.733919	-82301.62648	-131720.595863	-51662.61514	0.06	0.87	0.228	192.0	1.0	224.0	27.0	48.0	7.0	32.0	0.0	0.0	0.0	1660672955.187604	0.0
253	253.0	-7362.374051	-7080.786774	-7324.756065	-7186.577581	-79638.192611	-82260.186346	-131711.543406	-51686.19623	0.06	0.87	0.228	192.0	0.0	0.0	0.0	0.0	0.0	0.0	0.0	0.0	0.0	1660672955.187612	0.0
254	254.0	-7354.506237	-7070.080289	-7349.141818	-7202.693189	-79637.67852	-82247.55761	-131704.681421	-51696.902716	0.06	0.87	0.228	192.0	0.0	0.0	0.0	0.0	0.0	0.0	0.0	0.0	0.0	1660672955.187618	0.0
255	255.0	-7406.965781	-7173.211238	-7308.327533	-7184.9012	-79640.159564	-82295.166826	-131719.947662	-51676.272056	0.06	0.87	0.228	192.0	0.0	0.0	0.0	0.0	0.0	0.0	0.0	0.0	0.0	1660672955.187625	0.0
256	0.0	-7413.268973	-7181.593142	-7274.08466	-7156.782705	-79646.172183	-82303.504026	-131732.822267	-51666.102012	0.06	0.87	0.228	192.0	0.0	0.0	0.0	0.0	0.0	0.0	0.0	0.0	0.0	1660672955.187635	0.0
257	1.0	-7366.08444	-7101.216269	-7309.378065	-7175.80404	-79644.115823	-82267.54007	-131720.68527	-51685.123346	0.06	0.87	0.228	192.0	0.0	0.0	0.0	0.0	0.0	0.0	0.0	0.0	0.0	1660672955.187642	0.0
258	2.0	-7344.850283	-7057.742126	-7347.778362	-7201.933229	-79641.992407	-82245.545953	-131708.302403	-51702.513004	0.06	0.87	0.228	192.0	0.0	0.0	0.0	0.0	0.0	0.0	0.0	0.0	0.0	1660672955.187648	0.0
259	3.0	-7396.125185	-7155.396897	-7322.655001	-7199.541593	-79644.316989	-82295.904433	-131721.512284	-51689.280771	0.06	0.87	0.228	192.0	0.0	0.0	0.0	0.0	0.0	0.0	0.0	0.0	0.0	1660672955.187654	0.0
260	4.0	-7408.910383	-7194.221877	-7281.170163	-7170.998415	-79646.865087	-82313.495256	-131733.984558	-51674.036881	0.06	0.87	0.228	192.0	0.0	0.0	0.0	0.0	0.0	0.0	0.0	0.0	0.0	1660672955.187661	0.0
261	5.0	-7366.956159	-7129.826502	-7309.95921	-7188.969217	-79642.886477	-82285.466169	-131722.428706	-51689.236067	0.06	0.87	0.228	192.0	0.0	0.0	0.0	0.0	0.0	0.0	0.0	0.0	0.0	1660672955.187667	0.0
262	6.0	-7333.652059	-7055.10462	-7357.546074	-7221.356895	-79638.907866	-82255.514831	-131705.910767	-51710.850204	0.054	0.89	0.306	192.0	1.0	176.0	27.0	208.0	9.0	144.0	0.0	0.0	0.0	1660672955.187675	0.0
263	7.0	-7376.545057	-7151.910025	-7343.464475	-7228.308288	-79636.180954	-82299.100733	-131710.716392	-51700.233126	0.054	0.89	0.306	192.0	0.0	0.0	0.0	0.0	0.0	0.0	0.0	0.0	0.0	1660672955.187682	0.0
264	8.0	-7405.401159	-7217.199471	-7302.918411	-7206.224764	-79640.964227	-82331.376652	-131727.077869	-51685.212753	0.054	0.89	0.306	192.0	0.0	0.0	0.0	0.0	0.0	0.0	0.0	0.0	0.0	1660672955.187688	0.0
265	9.0	-7371.650025	-7157.341499	-7324.130216	-7220.77575	-79638.214962	-82312.668242	-131719.545331	-51697.72973	0.054	0.89	0.306	192.0	0.0	0.0	0.0	0.0	0.0	0.0	0.0	0.0	0.0	1660672955.187694	0.0
266	10.0	-7327.706495	-7074.438879	-7377.506182	-7257.253797	-79632.045881	-82276.078436	-131699.652278	-51721.579042	0.054	0.89	0.306	192.0	0.0	0.0	0.0	0.0	0.0	0.0	0.0	0.0	0.0	1660672955.187701	0.0
267	11.0	-7358.082516	-7150.3007	-7374.309882	-7270.396622	-79623.3287	-82306.610919	-131694.757246	-51712.258364	0.054	0.89	0.306	192.0	0.0	0.0	0.0	0.0	0.0	0.0	0.0	0.0	0.0	1660672955.187707	0.0
268	12.0	-7395.879316	-7227.615384	-7331.416885	-7249.564797	-79625.11684	-82346.441727	-131709.419991	-51692.700588	0.054	0.89	0.306	192.0	0.0	0.0	0.0	0.0	0.0	0.0	0.0	0.0	0.0	1660672955.187714	0.0
269	13.0	-7372.924074	-7197.261715	-7343.330365	-7258.773715	-79624.938026	-82336.830477	-131706.916595	-51701.350713	0.054	0.89	0.306	192.0	0.0	0.0	0.0	0.0	0.0	0.0	0.0	0.0	0.0	1660672955.187721	0.0
270	14.0	-7328.555862	-7110.313429	-7402.71895	-7299.275076	-79621.920541	-82299.614823	-131689.571642	-51728.910414	0.054	0.89	0.306	192.0	0.0	0.0	0.0	0.0	0.0	0.0	0.0	0.0	0.0	1660672955.187728	0.0
271	15.0	-7351.175827	-7149.607795	-7414.163043	-7319.101074	-79615.952625	-82318.92673	-131683.536671	-51727.166978	0.054	0.89	0.306	192.0	0.0	0.0	0.0	0.0	0.0	0.0	0.0	0.0	0.0	1660672955.187734	0.0
272	16.0	-7395.097005	-7242.702811	-7367.403193	-7295.765852	-79614.723279	-82360.612733	-131695.83013	-51701.730693	0.044	0.888	0.308	192.0	1.0	96.0	27.0	192.0	9.0	160.0	0.0	0.0	0.0	1660672955.187741	0.0
273	17.0	-7383.652912	-7230.699924	-7363.379879	-7290.937876	-79615.773811	-82355.069501	-131697.685325	-51701.909507	0.044	0.888	0.308	192.0	0.0	0.0	0.0	0.0	0.0	0.0	0.0	0.0	0.0	1660672955.187747	0.0
274	18.0	-7339.217644	-7136.576728	-7417.493453	-7323.92905	-79613.426878	-82314.009346	-131681.077979	-51725.177673	0.044	0.888	0.308	192.0	0.0	0.0	0.0	0.0	0.0	0.0	0.0	0.0	0.0	1660672955.187767	0.0
275	19.0	-7351.801676	-7149.674851	-7438.571148	-7343.106847	-79611.638738	-82316.937425	-131674.886546	-51728.575138	0.044	0.888	0.308	192.0	0.0	0.0	0.0	0.0	0.0	0.0	0.0	0.0	0.0	1660672955.187774	0.0
276	20.0	-7407.189299	-7257.2985	-7394.471156	-7320.285716	-79614.790334	-82361.506803	-131691.09156	-51703.429425	0.044	0.888	0.308	192.0	0.0	0.0	0.0	0.0	0.0	0.0	0.0	0.0	0.0	1660672955.187782	0.0
277	21.0	-7407.815147	-7250.12359	-7371.426507	-7296.861088	-79618.768945	-82358.332856	-131698.892319	-51693.907582	0.044	0.888	0.308	192.0	0.0	0.0	0.0	0.0	0.0	0.0	0.0	0.0	0.0	1660672955.187801	0.0
278	22.0	-7361.256464	-7153.944034	-7413.090159	-7316.687085	-79617.405488	-82315.484561	-131685.458921	-51713.48771	0.044	0.888	0.308	192.0	0.0	0.0	0.0	0.0	0.0	0.0	0.0	0.0	0.0	1660672955.187809	0.0
279	23.0	-7350.147647	-7132.843987	-7435.106627	-7330.344001	-79614.253892	-82301.581776	-131675.780615	-51723.85892	0.044	0.888	0.308	192.0	0.0	0.0	0.0	0.0	0.0	0.0	0.0	0.0	0.0	1660672955.187816	0.0
280	24.0	-7395.052301	-7226.386038	-7386.849211	-7304.863012	-79614.835038	-82346.821707	-131689.951621	-51704.524661	0.044	0.888	0.308	192.0	0.0	0.0	0.0	0.0	0.0	0.0	0.0	0.0	0.0	1660672955.187822	0.0
281	25.0	-7394.538211	-7232.733933	-7344.492655	-7268.764945	-79621.294692	-82354.354245	-131704.726124	-51698.154413	0.044	0.888	0.308	192.0	0.0	0.0	0.0	0.0	0.0	0.0	0.0	0.0	0.0	1660672955.187829	0.0
282	26.0	-7343.129199	-7140.532987	-7371.314749	-7278.085623	-79620.490029	-82316.021003	-131695.003116	-51719.723847	0.032	0.918	0.272	192.0	1.0	0.0	28.0	176.0	8.0	128.0	0.0	0.0	0.0	1660672955.187835	0.0
283	27.0	-7320.46453	-7087.000559	-7400.617886	-7292.211925	-79619.86418	-82289.020096	-131685.078941	-51736.55471	0.032	0.918	0.272	192.0	0.0	0.0	0.0	0.0	0.0	0.0	0.0	0.0	0.0	1660672955.187843	0.0
284	28.0	-7369.839534	-7181.43668	-7363.312824	-7273.57057	-79621.384099	-82330.32612	-131697.685325	-51717.063989	0.032	0.918	0.272	192.0	0.0	0.0	0.0	0.0	0.0	0.0	0.0	0.0	0.0	1660672955.187849	0.0
285	29.0	-7387.519763	-7217.110064	-7315.010704	-7233.739762	-79629.497782	-82344.586533	-131716.080811	-51701.685989	0.032	0.918	0.272	192.0	0.0	0.0	0.0	0.0	0.0	0.0	0.0	0.0	0.0	1660672955.187855	0.0
286	30.0	-7348.381859	-7141.963499	-7335.998992	-7239.417105	-79631.420032	-82312.332965	-131710.895206	-51717.063989	0.032	0.918	0.272	192.0	0.0	0.0	0.0	0.0	0.0	0.0	0.0	0.0	0.0	1660672955.187862	0.0
287	31.0	-7315.457739	-7065.766402	-7375.203952	-7259.041936	-79631.800012	-82276.234898	-131699.249947	-51737.582891	0.032	0.918	0.272	192.0	0.0	0.0	0.0	0.0	0.0	0.0	0.0	0.0	0.0	1660672955.187869	0.0
288	32.0	-7356.830818	-7150.635976	-7351.242882	-7251.330584	-79630.861238	-82310.902454	-131706.33545	-51723.009553	0.032	0.918	0.272	192.0	0.0	0.0	0.0	0.0	0.0	0.0	0.0	0.0	0.0	1660672955.187875	0.0
289	33.0	-7382.803545	-7203.050816	-7299.386835	-7213.958468	-79635.912733	-82333.947102	-131723.50159	-51702.960039	0.032	0.918	0.272	192.0	0.0	0.0	0.0	0.0	0.0	0.0	0.0	0.0	0.0	1660672955.187883	0.0
290	34.0	-7347.599548	-7144.042211	-7311.501481	-7216.238346	-79635.465698	-82308.42141	-131718.539502	-51712.705399	0.032	0.918	0.272	192.0	0.0	0.0	0.0	0.0	0.0	0.0	0.0	0.0	0.0	1660672955.187889	0.0
291	35.0	-7301.867879	-7053.092963	-7356.607301	-7240.869968	-79632.537619	-82265.304895	-131702.423895	-51735.682992	0.022	0.91	0.248	192.0	0.0	176.0	28.0	112.0	7.0	192.0	0.0	0.0	0.0	1660672955.187896	0.0
292	36.0	-7331.595699	-7112.928583	-7346.079629	-7242.278128	-79630.593017	-82291.210567	-131705.083752	-51728.999821	0.022	0.91	0.248	192.0	0.0	0.0	0.0	0.0	0.0	0.0	0.0	0.0	0.0	1660672955.187902	0.0
293	37.0	-7365.525647	-7181.347273	-7291.809594	-7206.113005	-79636.784451	-82324.134686	-131724.797991	-51709.5091	0.022	0.91	0.248	192.0	0.0	0.0	0.0	0.0	0.0	0.0	0.0	0.0	0.0	1660672955.187909	0.0
294	38.0	-7338.480036	-7139.951842	-7291.228448	-7199.586296	-79639.287846	-82307.080305	-131726.07204	-51716.728713	0.022	0.91	0.248	192.0	0.0	0.0	0.0	0.0	0.0	0.0	0.0	0.0	0.0	1660672955.187925	0.0
295	39.0	-7286.556934	-7037.714963	-7335.753123	-7222.653296	-79635.420994	-82259.694607	-131708.682383	-51739.661603	0.022	0.91	0.248	192.0	0.0	0.0	0.0	0.0	0.0	0.0	0.0	0.0	0.0	1660672955.187932	0.0
296	40.0	-7303.790129	-7070.683786	-7336.490731	-7228.710619	-79631.755308	-82271.339866	-131705.374325	-51736.688821	0.022	0.91	0.248	192.0	0.0	0.0	0.0	0.0	0.0	0.0	0.0	0.0	0.0	1660672955.187939	0.0
297	41.0	-7349.924129	-7161.923607	-7286.467527	-7199.027502	-79638.729052	-82312.668242	-131726.295558	-51716.460492	0.022	0.91	0.248	192.0	0.0	0.0	0.0	0.0	0.0	0.0	0.0	0.0	0.0	1660672955.187946	0.0
298	42.0	-7336.714248	-7139.571862	-7274.97873	-7184.878848	-79643.355863	-82303.951061	-131732.419936	-51717.466321	0.022	0.91	0.248	192.0	0.0	0.0	0.0	0.0	0.0	0.0	0.0	0.0	0.0	1660672955.187967	0.0
299	43.0	-7286.646341	-7038.407867	-7320.620992	-7208.817566	-79640.919523	-82258.644075	-131716.751363	-51740.108638	0.022	0.91	0.248	192.0	0.0	0.0	0.0	0.0	0.0	0.0	0.0	0.0	0.0	1660672955.187976	0.0
300	44.0	-7294.357693	-7047.885006	-7336.826007	-7223.077979	-79639.801936	-82259.47109	-131712.124552	-51745.227187	0.022	0.91	0.248	192.0	0.0	0.0	0.0	0.0	0.0	0.0	0.0	0.0	0.0	1660672955.187983	0.0
301	45.0	-7344.224434	-7147.439676	-7288.501535	-7196.345293	-79643.154698	-82303.16875	-131729.134229	-51722.249594	0.016	0.904	0.256	192.0	0.0	128.0	28.0	64.0	8.0	0.0	0.0	0.0	0.0	1660672955.18799	0.0
302	46.0	-7340.491693	-7142.030554	-7263.177009	-7171.937188	-79647.468584	-82300.754762	-131737.829058	-51715.521719	0.016	0.904	0.256	192.0	0.0	0.0	0.0	0.0	0.0	0.0	0.0	0.0	0.0	1660672955.187997	0.0
303	47.0	-7293.016588	-7048.242634	-7304.438329	-7192.925476	-79644.20523	-82257.101805	-131722.518113	-51733.626632	0.016	0.904	0.256	192.0	0.0	0.0	0.0	0.0	0.0	0.0	0.0	0.0	0.0	1660672955.188007	0.0
304	48.0	-7288.568591	-7029.623631	-7331.886271	-7211.1645	-79641.567724	-82242.416709	-131712.571587	-51740.958004	0.016	0.904	0.256	192.0	0.0	0.0	0.0	0.0	0.0	0.0	0.0	0.0	0.0	1660672955.188014	0.0
305	49.0	-7344.403248	-7135.392086	-7292.770719	-7192.880773	-79644.138175	-82288.215433	-131727.413145	-51718.22628	0.016	0.904	0.256	192.0	0.0	0.0	0.0	0.0	0.0	0.0	0.0	0.0	0.0	1660672955.188021	0.0
306	50.0	-7356.204969	-7155.732173	-7260.4948	-7165.388127	-79651.938933	-82297.469055	-131742.433517	-51707.877422	0.016	0.904	0.256	192.0	0.0	0.0	0.0	0.0	0.0	0.0	0.0	0.0	0.0	1660672955.188028	0.0
307	51.0	-7312.507309	-7072.695443	-7294.357693	-7181.995473	-79649.033207	-82259.806366	-131729.715375	-51723.769513	0.016	0.904	0.256	192.0	0.0	0.0	0.0	0.0	0.0	0.0	0.0	0.0	0.0	1660672955.188035	0.0
308	52.0	-7292.27898	-7023.946288	-7330.07578	-7203.810776	-79646.440404	-82234.526543	-131717.131343	-51738.007574	0.016	0.904	0.256	192.0	0.0	0.0	0.0	0.0	0.0	0.0	0.0	0.0	0.0	1660672955.188054	0.0
309	53.0	-7340.916376	-7120.662286	-7297.308123	-7190.556191	-79645.278114	-82276.190195	-131726.273206	-51717.578079	0.016	0.904	0.256	192.0	0.0	0.0	0.0	0.0	0.0	0.0	0.0	0.0	0.0	1660672955.188061	0.0
310	54.0	-7361.301167	-7159.643729	-7254.750401	-7157.855589	-79652.497727	-82294.228052	-131743.372291	-51702.781225	0.016	0.904	0.256	192.0	0.0	0.0	0.0	0.0	0.0	0.0	0.0	0.0	0.0	1660672955.188068	0.0
311	55.0	-7324.554899	-7092.342626	-7281.25957	-7171.043118	-79652.654189	-82266.087206	-131736.398546	-51718.069818	0.012	0.896	0.26	192.0	0.0	96.0	28.0	0.0	8.0	32.0	0.0	0.0	0.0	1660672955.188075	0.0
312	56.0	-7292.904829	-7022.94046	-7324.599603	-7196.233534	-79649.97198	-82231.41965	-131721.735802	-51737.158208	0.012	0.896	0.26	192.0	0.0	0.0	0.0	0.0	0.0	0.0	0.0	0.0	0.0	1660672955.188082	0.0
313	57.0	-7335.440199	-7107.675923	-7302.896059	-7190.690302	-79647.178012	-82266.400131	-131726.384965	-51720.52851	0.012	0.896	0.26	192.0	0.0	0.0	0.0	0.0	0.0	0.0	0.0	0.0	0.0	1660672955.188088	0.0
314	58.0	-7366.866752	-7165.723403	-7255.666823	-7157.117982	-79655.023474	-82293.825721	-131745.965093	-51702.133024	0.012	0.896	0.26	192.0	0.0	0.0	0.0	0.0	0.0	0.0	0.0	0.0	0.0	1660672955.188094	0.0
315	59.0	-7336.982469	-7111.967458	-7270.553085	-7162.013014	-79655.559916	-82271.339866	-131741.807668	-51711.677219	0.012	0.896	0.26	192.0	0.0	0.0	0.0	0.0	0.0	0.0	0.0	0.0	0.0	1660672955.188101	0.0
316	60.0	-7295.631742	-7024.683896	-7317.625859	-7188.589238	-79651.38014	-82229.184476	-131723.970976	-51731.592623	0.012	0.896	0.26	192.0	0.0	0.0	0.0	0.0	0.0	0.0	0.0	0.0	0.0	1660672955.188108	0.0
317	61.0	-7328.757027	-7089.459251	-7309.556879	-7191.494965	-79647.66975	-82254.754872	-131724.127439	-51721.0426	0.012	0.896	0.26	192.0	0.0	0.0	0.0	0.0	0.0	0.0	0.0	0.0	0.0	1660672955.188115	0.0
318	62.0	-7370.800659	-7169.344386	-7262.595864	-7161.633034	-79656.074006	-82291.63525	-131745.696872	-51701.797748	0.012	0.896	0.26	192.0	0.0	0.0	0.0	0.0	0.0	0.0	0.0	0.0	0.0	1660672955.188121	0.0
319	63.0	-7349.365336	-7134.140388	-7266.418012	-7159.621377	-79657.772739	-82276.90545	-131745.942741	-51706.961001	0.012	0.896	0.26	192.0	0.0	0.0	0.0	0.0	0.0	0.0	0.0	0.0	0.0	1660672955.188128	0.0
320	64.0	-7303.208983	-7038.050239	-7317.715265	-7189.63977	-79654.777605	-82233.744232	-131728.75425	-51730.13976	0.012	0.896	0.26	192.0	0.0	0.0	0.0	0.0	0.0	0.0	0.0	0.0	0.0	1660672955.188135	0.0
321	65.0	-7324.979582	-7076.852867	-7325.158396	-7202.223802	-79651.916582	-82248.831659	-131725.490895	-51727.949289	0.016	0.904	0.258	192.0	0.0	128.0	28.0	64.0	8.0	16.0	0.0	0.0	0.0	1660672955.188142	0.0
322	66.0	-7370.666548	-7168.003281	-7276.610407	-7174.105307	-79655.157585	-82289.422427	-131742.277055	-51704.748178	0.016	0.904	0.258	192.0	0.0	0.0	0.0	0.0	0.0	0.0	0.0	0.0	0.0	1660672955.188148	0.0
323	67.0	-7356.33908	-7147.551435	-7267.200323	-7162.772973	-79656.319875	-82281.174634	-131744.847506	-51703.295315	0.016	0.904	0.258	192.0	0.0	0.0	0.0	0.0	0.0	0.0	0.0	0.0	0.0	1660672955.188156	0.0
324	68.0	-7306.807614	-7051.237768	-7317.111768	-7192.389034	-79652.117747	-82238.035767	-131727.413145	-51725.848225	0.016	0.904	0.258	192.0	0.0	0.0	0.0	0.0	0.0	0.0	0.0	0.0	0.0	1660672955.188162	0.0
325	69.0	-7311.501481	-7059.239693	-7334.970812	-7209.197546	-79646.663922	-82237.387566	-131717.86895	-51728.284565	0.016	0.904	0.258	192.0	0.0	0.0	0.0	0.0	0.0	0.0	0.0	0.0	0.0	1660672955.188169	0.0
326	70.0	-7361.100001	-7159.844894	-7291.049634	-7187.695168	-79648.094433	-82282.940421	-131732.486991	-51705.351675	0.016	0.904	0.258	192.0	0.0	0.0	0.0	0.0	0.0	0.0	0.0	0.0	0.0	1660672955.188175	0.0
327	71.0	-7356.786115	-7157.699127	-7270.016643	-7169.456145	-79650.217849	-82283.499215	-131738.901942	-51699.406111	0.016	0.904	0.258	192.0	0.0	0.0	0.0	0.0	0.0	0.0	0.0	0.0	0.0	1660672955.188182	0.0
328	72.0	-7308.662809	-7068.068632	-7316.441216	-7198.647523	-79646.26159	-82245.344787	-131723.009851	-51721.400228	0.016	0.904	0.258	192.0	0.0	0.0	0.0	0.0	0.0	0.0	0.0	0.0	0.0	1660672955.188188	0.0
329	73.0	-7300.996161	-7049.270815	-7348.493618	-7224.128511	-79642.528849	-82234.906523	-131711.96809	-51732.978431	0.016	0.904	0.258	192.0	0.0	0.0	0.0	0.0	0.0	0.0	0.0	0.0	0.0	1660672955.188195	0.0
330	74.0	-7349.901777	-7151.015955	-7309.690989	-7208.281125	-79640.271323	-82280.392323	-131721.869912	-51710.02319	0.018	0.896	0.248	192.0	0.0	144.0	28.0	0.0	7.0	192.0	0.0	0.0	0.0	1660672955.188202	0.0
331	75.0	-7355.802638	-7169.277331	-7276.833925	-7183.046005	-79642.819422	-82289.377724	-131731.615273	-51698.266172	0.018	0.896	0.248	192.0	0.0	0.0	0.0	0.0	0.0	0.0	0.0	0.0	0.0	1660672955.188208	0.0
332	76.0	-7310.093321	-7089.235734	-7314.206042	-7205.91184	-79637.857334	-82255.134851	-131716.729011	-51715.477015	0.018	0.896	0.248	192.0	0.0	0.0	0.0	0.0	0.0	0.0	0.0	0.0	0.0	1660672955.188215	0.0
333	77.0	-7290.669655	-7045.292204	-7355.9591	-7235.863177	-79634.817497	-82233.855991	-131703.317964	-51732.352582	0.018	0.896	0.248	192.0	0.0	0.0	0.0	0.0	0.0	0.0	0.0	0.0	0.0	1660672955.188221	0.0
334	78.0	-7341.318708	-7147.551435	-7328.980545	-7230.364648	-79633.83402	-82279.833529	-131712.459828	-51714.582946	0.018	0.896	0.248	192.0	0.0	0.0	0.0	0.0	0.0	0.0	0.0	0.0	0.0	1660672955.188228	0.0
335	79.0	-7360.921188	-7188.566886	-7288.881515	-7201.888526	-79638.639645	-82299.815989	-131727.122572	-51699.383759	0.018	0.896	0.248	192.0	0.0	0.0	0.0	0.0	0.0	0.0	0.0	0.0	0.0	1660672955.188234	0.0
336	80.0	-7323.92905	-7122.673943	-7318.050542	-7219.859328	-79636.940913	-82273.910317	-131718.137171	-51714.627649	0.018	0.896	0.248	192.0	0.0	0.0	0.0	0.0	0.0	0.0	0.0	0.0	0.0	1660672955.18824	0.0
337	81.0	-7292.413091	-7054.21055	-7365.190371	-7250.995308	-79633.811669	-82242.506116	-131702.558005	-51734.766571	0.018	0.896	0.248	192.0	0.0	0.0	0.0	0.0	0.0	0.0	0.0	0.0	0.0	1660672955.188248	0.0
338	82.0	-7335.596661	-7142.187016	-7347.264272	-7250.660032	-79630.905942	-82281.286392	-131706.84954	-51720.439103	0.018	0.896	0.248	192.0	0.0	0.0	0.0	0.0	0.0	0.0	0.0	0.0	0.0	1660672955.188254	0.0
339	83.0	-7365.883275	-7203.676665	-7300.526774	-7219.479349	-79636.337416	-82310.321308	-131724.127439	-51701.887155	0.018	0.896	0.248	192.0	0.0	0.0	0.0	0.0	0.0	0.0	0.0	0.0	0.0	1660672955.188261	0.0
340	84.0	-7334.501426	-7152.692336	-7315.278925	-7226.497796	-79634.482221	-82289.422427	-131718.025412	-51711.029018	0.02	0.902	0.252	192.0	0.0	160.0	28.0	48.0	7.0	224.0	0.0	0.0	0.0	1660672955.188267	0.0
341	85.0	-7293.195402	-7066.660472	-7364.251597	-7256.471486	-79630.3695	-82250.396282	-131700.591052	-51733.045487	0.02	0.902	0.252	192.0	0.0	0.0	0.0	0.0	0.0	0.0	0.0	0.0	0.0	1660672955.188274	0.0
342	86.0	-7327.147702	-7131.681696	-7358.328385	-7262.484105	-79627.821401	-82279.118273	-131701.730991	-51725.043562	0.02	0.902	0.252	192.0	0.0	0.0	0.0	0.0	0.0	0.0	0.0	0.0	0.0	1660672955.188282	0.0
343	87.0	-7365.279778	-7207.901145	-7306.829966	-7229.559985	-79631.643549	-82314.344622	-131718.651261	-51702.244783	0.02	0.902	0.252	192.0	0.0	0.0	0.0	0.0	0.0	0.0	0.0	0.0	0.0	1660672955.188289	0.0
344	88.0	-7344.917338	-7174.485287	-7310.518004	-7228.621212	-79633.923427	-82303.012288	-131719.65709	-51708.726789	0.02	0.902	0.252	192.0	0.0	0.0	0.0	0.0	0.0	0.0	0.0	0.0	0.0	1660672955.188296	0.0
345	89.0	-7301.420844	-7083.759556	-7363.469286	-7261.388869	-79632.828192	-82263.941439	-131704.904938	-51734.610109	0.02	0.902	0.252	192.0	0.0	0.0	0.0	0.0	0.0	0.0	0.0	0.0	0.0	1660672955.188302	0.0
346	90.0	-7323.124388	-7124.663249	-7370.17481	-7273.727032	-79629.788355	-82280.10175	-131701.887453	-51733.000783	0.02	0.902	0.252	192.0	0.0	0.0	0.0	0.0	0.0	0.0	0.0	0.0	0.0	1660672955.188308	0.0
347	91.0	-7368.207856	-7215.321924	-7318.966963	-7243.32866	-79631.800012	-82321.005442	-131717.73484	-51708.167995	0.02	0.902	0.252	192.0	0.0	0.0	0.0	0.0	0.0	0.0	0.0	0.0	0.0	1660672955.188315	0.0
348	92.0	-7353.880388	-7193.372511	-7306.561745	-7229.559985	-79631.822363	-82312.623538	-131719.321814	-51705.217565	0.02	0.902	0.252	192.0	0.0	0.0	0.0	0.0	0.0	0.0	0.0	0.0	0.0	1660672955.188321	0.0
349	93.0	-7307.411111	-7100.07633	-7357.054336	-7260.293634	-79629.497782	-82272.658619	-131703.675592	-51729.178635	0.02	0.902	0.252	192.0	0.0	0.0	0.0	0.0	0.0	0.0	0.0	0.0	0.0	1660672955.188328	0.0
350	94.0	-7315.435388	-7111.431016	-7376.433298	-7278.599713	-79626.167372	-82275.430235	-131696.500682	-51733.716039	0.02	0.91	0.254	192.0	0.0	160.0	28.0	112.0	7.0	240.0	0.0	0.0	0.0	1660672955.188335	0.0
351	95.0	-7364.497467	-7210.672761	-7328.935841	-7253.252834	-79625.474468	-82319.530227	-131709.442342	-51708.257402	0.02	0.91	0.254	192.0	0.0	0.0	0.0	0.0	0.0	0.0	0.0	0.0	0.0	1660672955.188342	0.0
352	96.0	-7362.932845	-7211.8127	-7306.986428	-7233.739762	-79629.363671	-82321.765402	-131718.003061	-51702.423597	0.02	0.91	0.254	192.0	0.0	0.0	0.0	0.0	0.0	0.0	0.0	0.0	0.0	1660672955.188354	0.0
353	97.0	-7318.609335	-7125.110284	-7354.595644	-7263.132306	-79629.117802	-82286.404942	-131705.910767	-51726.339963	0.02	0.91	0.254	192.0	0.0	0.0	0.0	0.0	0.0	0.0	0.0	0.0	0.0	1660672955.188361	0.0
354	98.0	-7311.345018	-7103.876126	-7384.591685	-7285.461698	-79625.675634	-82274.714979	-131694.93606	-51736.532359	0.02	0.91	0.254	192.0	0.0	0.0	0.0	0.0	0.0	0.0	0.0	0.0	0.0	1660672955.188367	0.0
355	99.0	-7360.675318	-7204.883659	-7342.928033	-7265.814515	-79622.769907	-82318.814971	-131704.055572	-51711.476053	0.02	0.91	0.254	192.0	0.0	0.0	0.0	0.0	0.0	0.0	0.0	0.0	0.0	1660672955.188374	0.0
356	100.0	-7369.347795	-7224.597898	-7309.713341	-7239.014773	-79627.441421	-82329.141477	-131715.9467	-51700.456643	0.02	0.91	0.254	192.0	0.0	0.0	0.0	0.0	0.0	0.0	0.0	0.0	0.0	1660672955.18838	0.0
357	101.0	-7325.694838	-7144.265729	-7346.794885	-7260.405393	-79624.245122	-82295.233881	-131703.094447	-51718.36039	0.02	0.91	0.254	192.0	0.0	0.0	0.0	0.0	0.0	0.0	0.0	0.0	0.0	1660672955.188388	0.0
358	102.0	-7307.120539	-7098.310542	-7387.922095	-7288.233315	-79622.702852	-82273.463282	-131691.203319	-51735.593585	0.02	0.91	0.254	192.0	0.0	0.0	0.0	0.0	0.0	0.0	0.0	0.0	0.0	1660672955.188394	0.0
359	103.0	-7358.373089	-7198.468709	-7360.31769	-7280.544314	-79623.082831	-82319.284358	-131701.619232	-51718.136873	0.02	0.91	0.254	192.0	0.0	0.0	0.0	0.0	0.0	0.0	0.0	0.0	0.0	1660672955.188401	0.0
360	104.0	-7377.327368	-7237.226634	-7317.558803	-7248.156637	-79627.441421	-82337.322216	-131715.678479	-51701.306009	0.016	0.9	0.26	192.0	0.0	128.0	28.0	32.0	8.0	32.0	0.0	0.0	0.0	1660672955.188407	0.0
361	105.0	-7341.564577	-7172.406575	-7346.057277	-7264.182838	-79627.329663	-82311.193026	-131708.212997	-51717.1981	0.016	0.9	0.26	192.0	0.0	0.0	0.0	0.0	0.0	0.0	0.0	0.0	0.0	1660672955.668242	0.0
362	106.0	-7310.003914	-7102.177394	-7392.325388	-7292.860126	-79624.669805	-82278.447721	-131693.125569	-51736.93469	0.016	0.9	0.26	192.0	0.0	0.0	0.0	0.0	0.0	0.0	0.0	0.0	0.0	1660672955.668329	0.0
363	107.0	-7352.226359	-7186.555229	-7372.879371	-7289.306198	-79620.914712	-82314.255215	-131696.657145	-51720.997896	0.016	0.9	0.26	192.0	0.0	0.0	0.0	0.0	0.0	0.0	0.0	0.0	0.0	1660672955.668342	0.0
364	108.0	-7381.685958	-7244.803875	-7324.130216	-7254.638643	-79625.49682	-82340.83144	-131713.085677	-51700.456643	0.016	0.9	0.26	192.0	0.0	0.0	0.0	0.0	0.0	0.0	0.0	0.0	0.0	1660672955.668352	0.0
365	109.0	-7352.136952	-7192.21022	-7339.329402	-7260.517151	-79625.832096	-82320.290186	-131708.972956	-51710.403169	0.016	0.9	0.26	192.0	0.0	0.0	0.0	0.0	0.0	0.0	0.0	0.0	0.0	1660672955.668359	0.0
366	110.0	-7311.277963	-7105.172527	-7388.212667	-7289.037977	-79622.81461	-82280.213509	-131692.253851	-51732.240824	0.016	0.9	0.26	192.0	0.0	0.0	0.0	0.0	0.0	0.0	0.0	0.0	0.0	1660672955.668378	0.0
367	111.0	-7344.738525	-7170.081993	-7381.574199	-7293.128347	-79620.355918	-82307.192064	-131693.438493	-51723.881271	0.016	0.9	0.26	192.0	0.0	0.0	0.0	0.0	0.0	0.0	0.0	0.0	0.0	1660672955.668386	0.0
368	112.0	-7382.758842	-7245.362669	-7328.891138	-7257.767887	-79624.580398	-82341.412585	-131711.029316	-51700.92603	0.016	0.9	0.26	192.0	0.0	0.0	0.0	0.0	0.0	0.0	0.0	0.0	0.0	1660672955.668392	0.0
369	113.0	-7360.384746	-7207.230593	-7329.740504	-7252.738744	-79626.01091	-82326.928655	-131711.364592	-51705.79871	0.016	0.9	0.26	192.0	0.0	0.0	0.0	0.0	0.0	0.0	0.0	0.0	0.0	1660672955.668398	0.0
370	114.0	-7313.960172	-7111.274554	-7379.450784	-7281.147812	-79623.976901	-82284.505044	-131695.718371	-51730.340925	0.02	0.896	0.258	192.0	0.0	160.0	28.0	0.0	8.0	16.0	0.0	0.0	0.0	1660672955.668406	0.0
371	115.0	-7331.595699	-7145.137447	-7382.490621	-7288.635646	-79619.104221	-82296.574986	-131690.689229	-51726.921109	0.02	0.896	0.258	192.0	0.0	0.0	0.0	0.0	0.0	0.0	0.0	0.0	0.0	1660672955.668413	0.0
372	116.0	-7377.439127	-7235.058514	-7331.059257	-7257.231445	-79623.082831	-82337.948065	-131708.525921	-51703.317666	0.02	0.896	0.258	192.0	0.0	0.0	0.0	0.0	0.0	0.0	0.0	0.0	0.0	1660672955.668419	0.0
373	117.0	-7361.904664	-7212.32679	-7316.10594	-7240.087657	-79623.820439	-82328.247407	-131711.096372	-51700.389588	0.02	0.896	0.258	192.0	0.0	0.0	0.0	0.0	0.0	0.0	0.0	0.0	0.0	1660672955.668426	0.0
374	118.0	-7311.009742	-7113.286211	-7361.904664	-7264.965149	-79620.422974	-82284.236823	-131694.600784	-51723.031905	0.02	0.896	0.258	192.0	0.0	0.0	0.0	0.0	0.0	0.0	0.0	0.0	0.0	1660672955.668432	0.0
375	119.0	-7315.636553	-7117.398932	-7377.841458	-7278.532657	-79616.936102	-82283.342753	-131687.358819	-51727.122274	0.02	0.896	0.258	192.0	0.0	0.0	0.0	0.0	0.0	0.0	0.0	0.0	0.0	1660672955.668439	0.0
376	120.0	-7366.08444	-7216.350104	-7330.478112	-7252.515227	-79620.288863	-82328.873256	-131704.279089	-51704.658771	0.02	0.896	0.258	192.0	0.0	0.0	0.0	0.0	0.0	0.0	0.0	0.0	0.0	1660672955.668445	0.0
377	121.0	-7365.100964	-7216.305401	-7307.589925	-7231.482235	-79627.441421	-82332.047204	-131716.32668	-51701.641286	0.02	0.896	0.258	192.0	0.0	0.0	0.0	0.0	0.0	0.0	0.0	0.0	0.0	1660672955.668453	0.0
378	122.0	-7316.955306	-7123.545661	-7350.751144	-7255.577416	-79626.234427	-82293.065762	-131703.429723	-51724.775341	0.02	0.896	0.258	192.0	0.0	0.0	0.0	0.0	0.0	0.0	0.0	0.0	0.0	1660672955.66846	0.0
379	123.0	-7305.712379	-7097.550583	-7376.746223	-7273.257646	-79621.540561	-82277.598355	-131691.270374	-51733.98426	0.016	0.902	0.268	192.0	0.0	128.0	28.0	48.0	8.0	96.0	0.0	0.0	0.0	1660672955.668466	0.0
380	124.0	-7352.762801	-7195.562982	-7332.981507	-7251.040012	-79619.126573	-82320.379593	-131701.418066	-51709.777321	0.016	0.902	0.268	192.0	0.0	0.0	0.0	0.0	0.0	0.0	0.0	0.0	0.0	1660672955.668473	0.0
381	125.0	-7358.507199	-7211.320962	-7296.570515	-7220.932212	-79623.70868	-82328.694442	-131713.555063	-51698.601448	0.016	0.902	0.268	192.0	0.0	0.0	0.0	0.0	0.0	0.0	0.0	0.0	0.0	1660672955.66848	0.0
382	126.0	-7312.283792	-7127.010182	-7330.746332	-7239.305346	-79621.607616	-82293.468093	-131701.798046	-51717.488672	0.016	0.902	0.268	192.0	0.0	0.0	0.0	0.0	0.0	0.0	0.0	0.0	0.0	1660672955.668487	0.0
383	127.0	-7288.702701	-7074.7071	-7367.604359	-7262.685271	-79619.193628	-82268.367084	-131689.079903	-51734.610109	0.016	0.902	0.268	192.0	0.0	0.0	0.0	0.0	0.0	0.0	0.0	0.0	0.0	1660672955.668494	0.0
384	128.0	-7337.205987	-7172.160706	-7337.451856	-7252.269358	-79619.752421	-82312.400021	-131699.965203	-51718.203928	0.016	0.902	0.268	192.0	0.0	0.0	0.0	0.0	0.0	0.0	0.0	0.0	0.0	1660672955.668502	0.0
385	129.0	-7354.774458	-7209.37636	-7293.284809	-7218.540575	-79625.988558	-82330.393175	-131716.237273	-51703.74235	0.016	0.902	0.268	192.0	0.0	0.0	0.0	0.0	0.0	0.0	0.0	0.0	0.0	1660672955.668509	0.0
386	130.0	-7314.407207	-7137.49315	-7317.603507	-7230.498759	-79625.429764	-82301.715887	-131708.749438	-51719.76855	0.016	0.902	0.268	192.0	0.0	0.0	0.0	0.0	0.0	0.0	0.0	0.0	0.0	1660672955.668516	0.0
387	131.0	-7278.711471	-7061.184294	-7361.122353	-7256.247968	-79623.485163	-82266.735407	-131694.42197	-51741.516798	0.016	0.902	0.268	192.0	0.0	0.0	0.0	0.0	0.0	0.0	0.0	0.0	0.0	1660672955.668522	0.0
388	132.0	-7318.966963	-7143.014031	-7340.826969	-7252.112896	-79622.233465	-82302.721715	-131700.546348	-51729.446856	0.016	0.902	0.268	192.0	0.0	0.0	0.0	0.0	0.0	0.0	0.0	0.0	0.0	1660672955.668528	0.0
389	133.0	-7345.252615	-7198.312247	-7289.037977	-7214.964296	-79627.061442	-82328.426221	-131717.578377	-51710.336114	0.022	0.906	0.256	192.0	0.0	176.0	28.0	80.0	8.0	0.0	0.0	0.0	0.0	1660672955.668535	0.0
390	134.0	-7310.965039	-7141.136484	-7300.683236	-7217.646506	-79627.150849	-82305.85096	-131713.666822	-51721.579042	0.022	0.906	0.256	192.0	0.0	0.0	0.0	0.0	0.0	0.0	0.0	0.0	0.0	1660672955.668542	0.0
391	135.0	-7266.060384	-7049.47198	-7347.443086	-7244.312137	-79625.094488	-82264.299067	-131698.177063	-51746.009498	0.022	0.906	0.256	192.0	0.0	0.0	0.0	0.0	0.0	0.0	0.0	0.0	0.0	1660672955.668549	0.0
392	136.0	-7295.028245	-7107.38535	-7337.742429	-7245.452076	-79622.81461	-82288.997744	-131699.786389	-51739.058106	0.022	0.906	0.256	192.0	0.0	0.0	0.0	0.0	0.0	0.0	0.0	0.0	0.0	1660672955.668555	0.0
393	137.0	-7330.120484	-7178.62036	-7282.377157	-7207.9682	-79627.03909	-82321.810105	-131717.623081	-51717.063989	0.022	0.906	0.256	192.0	0.0	0.0	0.0	0.0	0.0	0.0	0.0	0.0	0.0	1660672955.668562	0.0
394	138.0	-7305.377103	-7138.700144	-7281.326626	-7201.262677	-79629.363671	-82306.476808	-131718.986537	-51723.344829	0.022	0.906	0.256	192.0	0.0	0.0	0.0	0.0	0.0	0.0	0.0	0.0	0.0	1660672955.668568	0.0
395	139.0	-7253.409297	-7037.200873	-7327.058295	-7225.670782	-79625.340357	-82260.253401	-131701.395714	-51746.791809	0.022	0.906	0.256	192.0	0.0	0.0	0.0	0.0	0.0	0.0	0.0	0.0	0.0	1660672955.668575	0.0
396	140.0	-7271.938893	-7070.48262	-7331.707458	-7234.566776	-79624.289825	-82273.843261	-131700.523996	-51747.708231	0.022	0.906	0.256	192.0	0.0	0.0	0.0	0.0	0.0	0.0	0.0	0.0	0.0	1660672955.668581	0.0
397	141.0	-7315.636553	-7158.079107	-7277.638588	-7200.547421	-79628.737823	-82313.808181	-131719.232407	-51725.244728	0.022	0.906	0.256	192.0	0.0	0.0	0.0	0.0	0.0	0.0	0.0	0.0	0.0	1660672955.668589	0.0
398	142.0	-7299.386835	-7133.291022	-7261.120649	-7181.593142	-79632.068233	-82304.375744	-131724.641529	-51724.752989	0.022	0.906	0.256	192.0	0.0	0.0	0.0	0.0	0.0	0.0	0.0	0.0	0.0	1660672955.668596	0.0
399	143.0	-7246.256738	-7029.087189	-7304.371274	-7203.319037	-79629.34132	-82258.420558	-131708.861197	-51748.088211	0.02	0.9	0.26	192.0	0.0	160.0	28.0	32.0	8.0	32.0	0.0	0.0	0.0	1660672955.668602	0.0
400	144.0	-7250.704736	-7031.769399	-7320.106902	-7216.014828	-79628.514305	-82257.593543	-131704.234386	-51755.173714	0.02	0.9	0.26	192.0	0.0	0.0	0.0	0.0	0.0	0.0	0.0	0.0	0.0	1660672955.668608	0.0
401	145.0	-7300.616181	-7130.631164	-7272.050652	-7189.080976	-79633.208172	-82302.945233	-131722.965148	-51734.140722	0.02	0.9	0.26	192.0	0.0	0.0	0.0	0.0	0.0	0.0	0.0	0.0	0.0	1660672955.668615	0.0
402	146.0	-7294.96119	-7125.356153	-7243.485122	-7162.013014	-79637.03032	-82301.045334	-131732.08466	-51727.45755	0.02	0.9	0.26	192.0	0.0	0.0	0.0	0.0	0.0	0.0	0.0	0.0	0.0	1660672955.668621	0.0
403	147.0	-7244.379192	-7028.617803	-7283.584152	-7182.442508	-79635.398642	-82259.381683	-131718.807723	-51749.74224	0.02	0.9	0.26	192.0	0.0	0.0	0.0	0.0	0.0	0.0	0.0	0.0	0.0	1660672955.668628	0.0
404	148.0	-7231.728105	-6999.068797	-7308.618105	-7198.044026	-79631.688253	-82242.483764	-131707.74361	-51759.845228	0.02	0.9	0.26	192.0	0.0	0.0	0.0	0.0	0.0	0.0	0.0	0.0	0.0	1660672955.668636	0.0
405	149.0	-7279.493782	-7096.835327	-7265.121611	-7175.334653	-79630.593017	-82284.639154	-131719.075944	-51736.4206	0.02	0.9	0.26	192.0	0.0	0.0	0.0	0.0	0.0	0.0	0.0	0.0	0.0	1660672955.668643	0.0
406	150.0	-7287.003969	-7114.247336	-7228.59886	-7144.824522	-79636.426823	-82293.512797	-131732.889322	-51725.937632	0.02	0.9	0.26	192.0	0.0	0.0	0.0	0.0	0.0	0.0	0.0	0.0	0.0	1660672955.66865	0.0
407	151.0	-7240.601747	-7028.774265	-7262.506457	-7161.856551	-79634.884552	-82257.325322	-131721.892264	-51745.160132	0.02	0.9	0.26	192.0	0.0	0.0	0.0	0.0	0.0	0.0	0.0	0.0	0.0	1660672955.668667	0.0
408	152.0	-7214.450206	-6972.380814	-7297.330475	-7181.995473	-79630.324796	-82228.022185	-131706.916595	-51759.621711	0.02	0.9	0.26	192.0	0.0	0.0	0.0	0.0	0.0	0.0	0.0	0.0	0.0	1660672955.668674	0.0
409	153.0	-7261.120649	-7066.906341	-7265.546294	-7169.411441	-79628.58136	-82268.657657	-131715.387906	-51740.667431	0.02	0.898	0.266	192.0	0.0	160.0	28.0	16.0	8.0	80.0	0.0	0.0	0.0	1660672955.66868	0.0
410	154.0	-7280.834887	-7106.312466	-7222.720352	-7136.889653	-79635.443346	-82287.991916	-131732.509343	-51726.80935	0.02	0.898	0.266	192.0	0.0	0.0	0.0	0.0	0.0	0.0	0.0	0.0	0.0	1660672955.668687	0.0
411	155.0	-7239.975898	-7034.295146	-7247.150808	-7147.730249	-79633.655206	-82257.437081	-131723.680404	-51740.734487	0.02	0.898	0.266	192.0	0.0	0.0	0.0	0.0	0.0	0.0	0.0	0.0	0.0	1660672955.668694	0.0
412	156.0	-7204.928363	-6959.193284	-7291.451966	-7173.322996	-79630.816535	-82221.093145	-131708.2577	-51760.918112	0.02	0.898	0.266	192.0	0.0	0.0	0.0	0.0	0.0	0.0	0.0	0.0	0.0	1660672955.668701	0.0
413	157.0	-7246.435552	-7041.425352	-7272.564742	-7169.903179	-79628.737823	-82256.185383	-131713.398601	-51747.238844	0.02	0.898	0.266	192.0	0.0	0.0	0.0	0.0	0.0	0.0	0.0	0.0	0.0	1660672955.668708	0.0
414	158.0	-7274.419936	-7097.952914	-7221.870985	-7133.447484	-79632.492916	-82281.174634	-131729.245988	-51726.004687	0.02	0.898	0.266	192.0	0.0	0.0	0.0	0.0	0.0	0.0	0.0	0.0	0.0	1660672955.668714	0.0
415	159.0	-7243.216901	-7043.638175	-7236.019639	-7137.828426	-79633.543448	-82259.09111	-131725.960282	-51736.93469	0.02	0.898	0.266	192.0	0.0	0.0	0.0	0.0	0.0	0.0	0.0	0.0	0.0	1660672955.66872	0.0
416	160.0	-7198.826337	-6951.928967	-7283.740614	-7164.225836	-79630.056576	-82216.242816	-131708.682383	-51759.152324	0.02	0.898	0.266	192.0	0.0	0.0	0.0	0.0	0.0	0.0	0.0	0.0	0.0	1660672955.668727	0.0
417	161.0	-7230.387	-7013.016285	-7277.750346	-7168.24915	-79627.508477	-82241.165011	-131709.822322	-51751.709193	0.02	0.898	0.266	192.0	0.0	0.0	0.0	0.0	0.0	0.0	0.0	0.0	0.0	1660672955.668737	0.0
418	162.0	-7268.541428	-7089.794527	-7225.804892	-7134.274499	-79631.531791	-82275.117311	-131727.323738	-51728.977469	0.02	0.904	0.268	192.0	0.0	160.0	28.0	64.0	8.0	96.0	0.0	0.0	0.0	1660672955.668743	0.0
419	163.0	-7243.686288	-7049.874312	-7225.179043	-7127.658382	-79631.375328	-82258.241744	-131726.027337	-51732.397286	0.02	0.904	0.268	192.0	0.0	0.0	0.0	0.0	0.0	0.0	0.0	0.0	0.0	1660672955.66875	0.0
420	164.0	-7193.506622	-6948.978537	-7273.905846	-7154.346365	-79627.128497	-82212.219502	-131707.855369	-51754.950196	0.02	0.904	0.268	192.0	0.0	0.0	0.0	0.0	0.0	0.0	0.0	0.0	0.0	1660672955.668756	0.0
421	165.0	-7212.259735	-6983.601389	-7281.147812	-7165.656348	-79623.686328	-82224.602368	-131703.988517	-51753.251464	0.02	0.904	0.268	192.0	0.0	0.0	0.0	0.0	0.0	0.0	0.0	0.0	0.0	1660672955.668763	0.0
422	166.0	-7260.830076	-7079.155097	-7234.343259	-7139.951842	-79628.603712	-82268.232974	-131722.763982	-51731.704382	0.02	0.904	0.268	192.0	0.0	0.0	0.0	0.0	0.0	0.0	0.0	0.0	0.0	1660672955.668769	0.0
423	167.0	-7249.09541	-7061.206646	-7224.217918	-7128.127769	-79632.090584	-82261.974485	-131728.083697	-51731.816141	0.02	0.904	0.268	192.0	0.0	0.0	0.0	0.0	0.0	0.0	0.0	0.0	0.0	1660672955.668776	0.0
424	168.0	-7195.674741	-6958.388622	-7269.189628	-7151.373583	-79626.949683	-82215.102877	-131709.79997	-51752.893836	0.02	0.904	0.268	192.0	0.0	0.0	0.0	0.0	0.0	0.0	0.0	0.0	0.0	1660672955.668784	0.0
425	169.0	-7196.30059	-6957.785125	-7283.18182	-7162.102421	-79620.959416	-82209.6267	-131699.696982	-51754.61492	0.02	0.904	0.268	192.0	0.0	0.0	0.0	0.0	0.0	0.0	0.0	0.0	0.0	1660672955.66879	0.0
426	170.0	-7245.809704	-7056.311614	-7235.013811	-7135.347382	-79622.501686	-82252.743215	-131714.784409	-51729.916242	0.02	0.904	0.268	192.0	0.0	0.0	0.0	0.0	0.0	0.0	0.0	0.0	0.0	1660672955.668797	0.0
427	171.0	-7245.474427	-7057.093925	-7211.611535	-7113.755597	-79629.095451	-82254.911334	-131726.362613	-51725.378838	0.02	0.904	0.268	192.0	0.0	0.0	0.0	0.0	0.0	0.0	0.0	0.0	0.0	1660672955.668805	0.0
428	172.0	-7196.255886	-6962.769564	-7253.83398	-7136.062638	-79626.90498	-82213.627662	-131712.504531	-51747.216493	0.014	0.908	0.26	192.0	0.0	112.0	28.0	96.0	8.0	32.0	0.0	0.0	0.0	1660672955.668811	0.0
429	173.0	-7186.979912	-6937.467389	-7283.382986	-7155.933339	-79624.647453	-82198.696697	-131702.669764	-51758.884103	0.014	0.908	0.26	192.0	0.0	0.0	0.0	0.0	0.0	0.0	0.0	0.0	0.0	1660672955.668818	0.0
430	174.0	-7240.065305	-7041.738277	-7245.519131	-7139.482455	-79626.368538	-82244.964808	-131716.639604	-51737.851112	0.014	0.908	0.26	192.0	0.0	0.0	0.0	0.0	0.0	0.0	0.0	0.0	0.0	1660672955.668824	0.0
431	175.0	-7247.933119	-7060.044355	-7209.577526	-7109.68758	-79630.548314	-82253.167898	-131728.486029	-51724.998859	0.014	0.908	0.26	192.0	0.0	0.0	0.0	0.0	0.0	0.0	0.0	0.0	0.0	1660672955.668832	0.0
432	176.0	-7199.072206	-6972.157296	-7240.780561	-7123.858586	-79625.094488	-82213.538255	-131713.488008	-51739.907472	0.014	0.908	0.26	192.0	0.0	0.0	0.0	0.0	0.0	0.0	0.0	0.0	0.0	1660672955.668839	0.0
433	177.0	-7175.826392	-6919.049551	-7278.733823	-7146.858531	-79622.322872	-82186.403237	-131700.300479	-51756.112487	0.014	0.908	0.26	192.0	0.0	0.0	0.0	0.0	0.0	0.0	0.0	0.0	0.0	1660672955.668845	0.0
434	178.0	-7225.067285	-7017.084303	-7249.497741	-7137.224929	-79621.40645	-82228.737441	-131709.375287	-51737.44878	0.014	0.908	0.26	192.0	0.0	0.0	0.0	0.0	0.0	0.0	0.0	0.0	0.0	1660672955.668851	0.0
435	179.0	-7244.289785	-7057.563312	-7204.906011	-7103.518498	-79625.519171	-82246.060043	-131723.658052	-51719.567385	0.014	0.908	0.26	192.0	0.0	0.0	0.0	0.0	0.0	0.0	0.0	0.0	0.0	1660672955.668858	0.0
436	180.0	-7205.263639	-6987.691759	-7229.604689	-7114.761426	-79624.356881	-82216.488685	-131715.522017	-51733.60428	0.014	0.908	0.26	192.0	0.0	0.0	0.0	0.0	0.0	0.0	0.0	0.0	0.0	1660672955.668864	0.0
437	181.0	-7171.691319	-6912.656952	-7275.805745	-7141.807037	-79622.591093	-82181.239984	-131701.038087	-51754.838437	0.014	0.908	0.26	192.0	0.0	0.0	0.0	0.0	0.0	0.0	0.0	0.0	0.0	1660672955.668871	0.0
438	182.0	-7216.841843	-6999.180555	-7260.673614	-7142.36583	-79622.121706	-82218.701508	-131707.609499	-51742.634385	0.012	0.9	0.25	192.0	0.0	96.0	28.0	32.0	7.0	208.0	0.0	0.0	0.0	1660672955.668879	0.0
439	183.0	-7248.58132	-7062.547751	-7212.662067	-7109.754635	-79626.815573	-82246.350616	-131724.350956	-51721.959021	0.012	0.9	0.25	192.0	0.0	0.0	0.0	0.0	0.0	0.0	0.0	0.0	0.0	1660672955.668885	0.0
440	184.0	-7216.484215	-7008.031846	-7225.581375	-7113.219155	-79625.161544	-82222.993043	-131718.472447	-51729.893891	0.012	0.9	0.25	192.0	0.0	0.0	0.0	0.0	0.0	0.0	0.0	0.0	0.0	1660672955.668892	0.0
441	185.0	-7172.026595	-6915.897955	-7273.905846	-7140.063601	-79620.557084	-82179.384789	-131699.965203	-51750.792772	0.012	0.9	0.25	192.0	0.0	0.0	0.0	0.0	0.0	0.0	0.0	0.0	0.0	1660672955.668898	0.0
442	186.0	-7204.63779	-6979.443965	-7269.21198	-7145.986813	-79616.757288	-82204.463447	-131699.54052	-51741.740315	0.012	0.9	0.25	192.0	0.0	0.0	0.0	0.0	0.0	0.0	0.0	0.0	0.0	1660672955.668905	0.0
443	187.0	-7246.569663	-7061.452515	-7220.529881	-7116.214289	-79621.540561	-82241.433232	-131717.578377	-51719.075646	0.012	0.9	0.25	192.0	0.0	0.0	0.0	0.0	0.0	0.0	0.0	0.0	0.0	1660672955.668912	0.0
444	188.0	-7224.016753	-7024.326268	-7221.267488	-7111.296905	-79621.65232	-82225.921121	-131716.393735	-51722.026077	0.012	0.9	0.25	192.0	0.0	0.0	0.0	0.0	0.0	0.0	0.0	0.0	0.0	1660672955.668919	0.0
445	189.0	-7176.094613	-6926.582089	-7271.916541	-7139.79538	-79618.500724	-82181.44115	-131699.249947	-51745.763629	0.012	0.9	0.25	192.0	0.0	0.0	0.0	0.0	0.0	0.0	0.0	0.0	0.0	1660672955.668926	0.0
446	190.0	-7195.786499	-6962.59075	-7279.762003	-7151.97708	-79614.365651	-82194.00283	-131694.623136	-51743.237882	0.012	0.9	0.25	192.0	0.0	0.0	0.0	0.0	0.0	0.0	0.0	0.0	0.0	1660672955.668932	0.0
447	191.0	-7245.429724	-7059.597321	-7232.555119	-7126.429036	-79617.785468	-82237.342863	-131711.766924	-51719.165053	0.012	0.9	0.25	192.0	0.0	0.0	0.0	0.0	0.0	0.0	0.0	0.0	0.0	1660672955.668939	0.0
448	192.0	-7233.069209	-7041.984146	-7220.932212	-7113.487376	-79619.081869	-82230.011491	-131714.940872	-51716.616954	0.014	0.892	0.248	192.0	0.0	112.0	27.0	224.0	7.0	192.0	0.0	0.0	0.0	1660672955.668947	0.0
449	193.0	-7182.107232	-6943.032973	-7268.384965	-7139.79538	-79614.388003	-82185.352705	-131696.947717	-51738.499312	0.014	0.892	0.248	192.0	0.0	0.0	0.0	0.0	0.0	0.0	0.0	0.0	0.0	1660672955.668953	0.0
450	194.0	-7188.23161	-6950.029069	-7288.792108	-7157.855589	-79610.208226	-82184.458635	-131688.297592	-51742.232054	0.014	0.892	0.248	192.0	0.0	0.0	0.0	0.0	0.0	0.0	0.0	0.0	0.0	1660672955.668959	0.0
451	195.0	-7243.127494	-7058.166809	-7246.189683	-7138.476627	-79612.04107	-82232.067851	-131703.452075	-51718.069818	0.014	0.892	0.248	192.0	0.0	0.0	0.0	0.0	0.0	0.0	0.0	0.0	0.0	1660672955.668967	0.0
452	196.0	-7246.14498	-7064.537056	-7226.274279	-7121.668115	-79618.612482	-82237.387566	-131714.851465	-51713.822986	0.014	0.892	0.248	192.0	0.0	0.0	0.0	0.0	0.0	0.0	0.0	0.0	0.0	1660672955.668974	0.0
453	197.0	-7199.38513	-6972.671386	-7271.022471	-7147.171455	-79617.114916	-82198.786104	-131701.552177	-51736.510007	0.014	0.892	0.248	192.0	0.0	0.0	0.0	0.0	0.0	0.0	0.0	0.0	0.0	1660672955.66898	0.0
454	198.0	-7192.657255	-6950.699622	-7303.633666	-7171.087822	-79615.773811	-82186.962031	-131692.387961	-51749.474019	0.014	0.892	0.248	192.0	0.0	0.0	0.0	0.0	0.0	0.0	0.0	0.0	0.0	1660672955.668986	0.0
455	199.0	-7245.787352	-7058.323271	-7265.74746	-7156.335671	-79614.209189	-82233.565418	-131702.781523	-51725.647059	0.014	0.892	0.248	192.0	0.0	0.0	0.0	0.0	0.0	0.0	0.0	0.0	0.0	1660672955.668993	0.0
456	200.0	-7257.745535	-7084.117184	-7233.158616	-7131.502882	-79619.148924	-82246.127098	-131715.477313	-51714.113559	0.014	0.892	0.248	192.0	0.0	0.0	0.0	0.0	0.0	0.0	0.0	0.0	0.0	1660672955.668999	0.0
457	201.0	-7215.031351	-7004.120291	-7270.709547	-7152.982909	-79618.411317	-82213.538255	-131705.195511	-51734.431295	0.014	0.892	0.248	192.0	0.0	0.0	0.0	0.0	0.0	0.0	0.0	0.0	0.0	1660672955.669006	0.0
458	202.0	-7190.466784	-6950.364345	-7308.394588	-7176.452241	-79613.270415	-82185.933851	-131689.325772	-51749.161094	0.018	0.888	0.252	192.0	0.0	144.0	27.0	192.0	7.0	224.0	0.0	0.0	0.0	1660672955.669014	0.0
459	203.0	-7240.981727	-7051.550693	-7280.276094	-7169.366738	-79610.141171	-82229.184476	-131696.008944	-51729.11158	0.018	0.888	0.252	192.0	0.0	0.0	0.0	0.0	0.0	0.0	0.0	0.0	0.0	1660672955.66902	0.0
460	204.0	-7263.534637	-7096.589458	-7238.545387	-7139.862435	-79614.47741	-82249.636322	-131710.269357	-51711.297239	0.018	0.888	0.252	192.0	0.0	0.0	0.0	0.0	0.0	0.0	0.0	0.0	0.0	1660672955.669026	0.0
461	205.0	-7223.390904	-7026.472035	-7262.618215	-7150.904197	-79611.035241	-82219.75204	-131699.719334	-51723.702457	0.018	0.888	0.252	192.0	0.0	0.0	0.0	0.0	0.0	0.0	0.0	0.0	0.0	1660672955.669033	0.0
462	206.0	-7188.924514	-6951.884264	-7308.03696	-7177.301607	-79607.391907	-82184.033952	-131683.514319	-51743.819027	0.018	0.888	0.252	192.0	0.0	0.0	0.0	0.0	0.0	0.0	0.0	0.0	0.0	1660672955.669039	0.0
463	207.0	-7236.176102	-7042.721753	-7293.754195	-7179.827354	-79606.967224	-82223.350671	-131689.996325	-51731.346754	0.018	0.888	0.252	192.0	0.0	0.0	0.0	0.0	0.0	0.0	0.0	0.0	0.0	1660672955.669046	0.0
464	208.0	-7271.603617	-7109.240545	-7248.380154	-7150.278348	-79614.23154	-82254.576058	-131709.241177	-51712.861861	0.018	0.888	0.252	192.0	0.0	0.0	0.0	0.0	0.0	0.0	0.0	0.0	0.0	1660672955.669052	0.0
465	209.0	-7241.115837	-7055.708117	-7262.126477	-7154.636938	-79614.030375	-82233.498363	-131704.815531	-51722.674277	0.018	0.888	0.252	192.0	0.0	0.0	0.0	0.0	0.0	0.0	0.0	0.0	0.0	1660672955.66906	0.0
466	210.0	-7197.596991	-6965.138848	-7310.942687	-7182.196639	-79610.498799	-82191.968822	-131687.470578	-51745.607167	0.018	0.888	0.252	192.0	0.0	0.0	0.0	0.0	0.0	0.0	0.0	0.0	0.0	1660672955.669092	0.0
467	211.0	-7231.571642	-7031.545881	-7307.053483	-7189.975046	-79606.609596	-82219.170895	-131686.956488	-51737.225263	0.022	0.894	0.252	192.0	0.0	176.0	27.0	240.0	7.0	224.0	0.0	0.0	0.0	1660672955.669099	0.0
468	212.0	-7274.174067	-7114.984943	-7258.349032	-7161.32011	-79610.096468	-82256.811232	-131703.675592	-51713.979449	0.022	0.894	0.252	192.0	0.0	0.0	0.0	0.0	0.0	0.0	0.0	0.0	0.0	1660672955.669106	0.0
469	213.0	-7252.403468	-7079.870353	-7259.667785	-7157.632072	-79610.588206	-82243.19902	-131703.027392	-51718.159225	0.022	0.894	0.252	192.0	0.0	0.0	0.0	0.0	0.0	0.0	0.0	0.0	0.0	1660672955.669114	0.0
470	214.0	-7203.900183	-6981.925009	-7310.875632	-7186.95756	-79607.928349	-82200.417781	-131686.442397	-51743.751972	0.022	0.894	0.252	192.0	0.0	0.0	0.0	0.0	0.0	0.0	0.0	0.0	0.0	1660672955.669122	0.0
471	215.0	-7225.290802	-7020.504119	-7321.000972	-7202.313209	-79604.732049	-82215.773429	-131682.597897	-51743.304937	0.022	0.894	0.252	192.0	0.0	0.0	0.0	0.0	0.0	0.0	0.0	0.0	0.0	1660672955.66913	0.0
472	216.0	-7274.46464	-7119.410589	-7272.967073	-7177.547476	-79606.117857	-82259.627552	-131697.730028	-51718.09217	0.022	0.894	0.252	192.0	0.0	0.0	0.0	0.0	0.0	0.0	0.0	0.0	0.0	1660672955.669137	0.0
473	217.0	-7264.47341	-7105.32899	-7264.004024	-7168.226799	-79610.007061	-82256.632418	-131703.586185	-51719.321515	0.022	0.894	0.252	192.0	0.0	0.0	0.0	0.0	0.0	0.0	0.0	0.0	0.0	1660672955.669144	0.0
474	218.0	-7213.109101	-7005.304933	-7312.864937	-7196.30059	-79606.810761	-82214.454676	-131687.180005	-51744.444876	0.022	0.894	0.252	192.0	0.0	0.0	0.0	0.0	0.0	0.0	0.0	0.0	0.0	1660672955.669151	0.0
475	219.0	-7217.244174	-7011.429311	-7332.690934	-7214.852537	-79601.468694	-82214.208807	-131677.479348	-51749.049336	0.022	0.894	0.252	192.0	0.0	0.0	0.0	0.0	0.0	0.0	0.0	0.0	0.0	1660672955.669158	0.0
476	220.0	-7270.374271	-7119.343533	-7289.663826	-7196.635866	-79601.245177	-82262.28741	-131690.555118	-51724.216548	0.022	0.894	0.252	192.0	0.0	0.0	0.0	0.0	0.0	0.0	0.0	0.0	0.0	1660672955.669165	0.0
477	221.0	-7271.357747	-7124.998525	-7269.323739	-7180.475555	-79606.006099	-82267.875346	-131700.05461	-51719.835606	0.022	0.9	0.254	192.0	0.0	176.0	28.0	32.0	7.0	240.0	0.0	0.0	0.0	1660672955.669172	0.0
478	222.0	-7222.519186	-7033.356373	-7314.56367	-7207.096482	-79603.770924	-82230.637339	-131686.330639	-51744.422525	0.022	0.9	0.254	192.0	0.0	0.0	0.0	0.0	0.0	0.0	0.0	0.0	0.0	1660672955.669186	0.0
479	223.0	-7213.109101	-7010.334076	-7346.928995	-7231.482235	-79600.194645	-82218.589749	-131675.043008	-51757.297129	0.022	0.9	0.254	192.0	0.0	0.0	0.0	0.0	0.0	0.0	0.0	0.0	0.0	1660672955.669193	0.0
480	224.0	-7266.932102	-7119.991734	-7310.965039	-7220.01579	-79597.914767	-82266.713055	-131684.587203	-51733.716039	0.022	0.9	0.254	192.0	0.0	0.0	0.0	0.0	0.0	0.0	0.0	0.0	0.0	1660672955.6692	0.0
481	225.0	-7275.761041	-7142.477589	-7276.588056	-7194.355988	-79599.725258	-82277.330134	-131694.064342	-51720.170882	0.022	0.9	0.254	192.0	0.0	0.0	0.0	0.0	0.0	0.0	0.0	0.0	0.0	1660672956.149708	0.0
482	226.0	-7228.867081	-7058.43503	-7311.613239	-7213.824357	-79596.260738	-82243.489592	-131681.212089	-51739.639251	0.022	0.9	0.254	192.0	0.0	0.0	0.0	0.0	0.0	0.0	0.0	0.0	0.0	1660672956.149754	0.0
483	227.0	-7204.347218	-7005.439044	-7352.069897	-7240.37823	-79592.595052	-82218.701508	-131666.951676	-51758.057089	0.022	0.9	0.254	192.0	0.0	0.0	0.0	0.0	0.0	0.0	0.0	0.0	0.0	1660672956.149801	0.0
484	228.0	-7257.365555	-7111.74394	-7328.220585	-7238.679497	-79591.589223	-82266.198965	-131675.735912	-51741.025059	0.022	0.9	0.254	192.0	0.0	0.0	0.0	0.0	0.0	0.0	0.0	0.0	0.0	1660672956.149808	0.0
485	229.0	-7280.499611	-7158.883769	-7288.613294	-7212.259735	-79596.841883	-82289.422427	-131691.069209	-51725.848225	0.022	0.9	0.254	192.0	0.0	0.0	0.0	0.0	0.0	0.0	0.0	0.0	0.0	1660672956.149817	0.0
486	230.0	-7239.037125	-7087.738167	-7313.379027	-7224.821416	-79593.712639	-82261.438043	-131681.234441	-51740.980356	0.022	0.9	0.254	192.0	0.0	0.0	0.0	0.0	0.0	0.0	0.0	0.0	0.0	1660672956.149823	0.0
487	231.0	-7201.866174	-7010.557593	-7359.267158	-7252.626986	-79589.577566	-82226.569322	-131664.537688	-51763.130935	0.018	0.896	0.252	192.0	0.0	144.0	28.0	0.0	7.0	224.0	0.0	0.0	0.0	1660672956.14984	0.0
488	232.0	-7245.317965	-7098.846984	-7344.090324	-7255.622119	-79585.218976	-82264.72375	-131666.884621	-51749.116391	0.018	0.896	0.252	192.0	0.0	0.0	0.0	0.0	0.0	0.0	0.0	0.0	0.0	1660672956.149846	0.0
489	233.0	-7279.471431	-7166.259845	-7299.632704	-7228.397695	-79590.225767	-82296.709096	-131683.827243	-51729.916242	0.018	0.896	0.252	192.0	0.0	0.0	0.0	0.0	0.0	0.0	0.0	0.0	0.0	1660672956.149853	0.0
490	234.0	-7245.25091	-7111.341609	-7311.836757	-7232.286898	-79587.588261	-82275.162014	-131677.300534	-51739.214568	0.018	0.896	0.252	192.0	0.0	0.0	0.0	0.0	0.0	0.0	0.0	0.0	0.0	1660672956.149859	0.0
491	235.0	-7197.619343	-7016.503157	-7359.736545	-7259.377212	-79582.58147	-82233.118383	-131658.837993	-51763.265045	0.018	0.896	0.252	192.0	0.0	0.0	0.0	0.0	0.0	0.0	0.0	0.0	0.0	1660672956.149868	0.0
492	236.0	-7231.661049	-7082.574914	-7357.903702	-7269.59196	-79579.474578	-82261.818023	-131658.882696	-51756.783039	0.018	0.896	0.252	192.0	0.0	0.0	0.0	0.0	0.0	0.0	0.0	0.0	0.0	1660672956.149876	0.0
493	237.0	-7273.257646	-7166.70688	-7308.975733	-7241.54052	-79581.754456	-82299.860692	-131674.506566	-51732.799617	0.018	0.896	0.252	192.0	0.0	0.0	0.0	0.0	0.0	0.0	0.0	0.0	0.0	1660672956.149883	0.0
494	238.0	-7250.704736	-7131.569938	-7310.741521	-7238.925366	-79583.073209	-82288.528358	-131674.774787	-51739.102809	0.018	0.896	0.252	192.0	0.0	0.0	0.0	0.0	0.0	0.0	0.0	0.0	0.0	1660672956.14989	0.0
495	239.0	-7199.25102	-7029.981259	-7360.362394	-7266.865047	-79579.49693	-82245.456546	-131657.563944	-51765.433164	0.018	0.896	0.252	192.0	0.0	0.0	0.0	0.0	0.0	0.0	0.0	0.0	0.0	1660672956.149896	0.0
496	240.0	-7221.066322	-7069.387385	-7371.672377	-7283.69591	-79577.507624	-82262.220354	-131654.993493	-51766.841324	0.018	0.896	0.252	192.0	0.0	0.0	0.0	0.0	0.0	0.0	0.0	0.0	0.0	1660672956.149902	0.0
497	241.0	-7272.475335	-7170.596083	-7326.208928	-7261.768849	-79580.994496	-82308.533169	-131672.092577	-51743.461399	0.014	0.898	0.248	192.0	0.0	112.0	28.0	16.0	7.0	192.0	0.0	0.0	0.0	1660672956.149909	0.0
498	242.0	-7259.779544	-7152.714688	-7314.004876	-7248.9613	-79582.603822	-82303.325212	-131675.71356	-51742.679088	0.014	0.898	0.248	192.0	0.0	0.0	0.0	0.0	0.0	0.0	0.0	0.0	0.0	1660672956.149916	0.0
499	243.0	-7205.621267	-7049.382573	-7359.490676	-7273.05648	-79577.887604	-82259.269924	-131658.122737	-51766.327234	0.014	0.898	0.248	192.0	0.0	0.0	0.0	0.0	0.0	0.0	0.0	0.0	0.0	1660672956.149923	0.0
500	244.0	-7207.856441	-7052.467114	-7377.34972	-7288.881515	-79571.830281	-82257.03475	-131647.52801	-51769.747051	0.014	0.898	0.248	192.0	0.0	0.0	0.0	0.0	0.0	0.0	0.0	0.0	0.0	1660672956.149929	0.0
501	245.0	-7262.685271	-7161.789496	-7334.322612	-7270.284864	-79572.45613	-82305.403925	-131661.408444	-51744.422525	0.014	0.898	0.248	192.0	0.0	0.0	0.0	0.0	0.0	0.0	0.0	0.0	0.0	1660672956.149936	0.0
502	246.0	-7263.95932	-7166.393956	-7312.574364	-7252.090544	-79578.22288	-82310.991861	-131672.293743	-51739.952176	0.014	0.898	0.248	192.0	0.0	0.0	0.0	0.0	0.0	0.0	0.0	0.0	0.0	1660672956.149942	0.0
503	247.0	-7210.359837	-7067.040451	-7351.891083	-7271.983596	-79573.48431	-82269.439968	-131655.999321	-51761.186333	0.014	0.898	0.248	192.0	0.0	0.0	0.0	0.0	0.0	0.0	0.0	0.0	0.0	1660672956.149949	0.0
504	248.0	-7195.898258	-7036.39621	-7378.556714	-7289.552067	-79566.599973	-82251.804441	-131641.135411	-51769.925865	0.014	0.898	0.248	192.0	0.0	0.0	0.0	0.0	0.0	0.0	0.0	0.0	0.0	1660672956.149955	0.0
505	249.0	-7252.649337	-7148.847836	-7343.799751	-7278.800878	-79567.225822	-82301.693535	-131653.652388	-51747.842341	0.014	0.898	0.248	192.0	0.0	0.0	0.0	0.0	0.0	0.0	0.0	0.0	0.0	1660672956.149963	0.0
506	250.0	-7267.133268	-7176.407537	-7312.931992	-7256.091506	-79575.294802	-82317.540922	-131669.56683	-51739.058106	0.014	0.898	0.248	192.0	0.0	0.0	0.0	0.0	0.0	0.0	0.0	0.0	0.0	1660672956.149969	0.0
507	251.0	-7219.524052	-7089.973341	-7346.258443	-7272.721204	-79572.791406	-82282.851014	-131657.742758	-51758.8394	0.028	0.9	0.258	192.0	0.0	224.0	28.0	32.0	8.0	16.0	0.0	0.0	0.0	1660672956.149976	0.0
508	252.0	-7194.490098	-7034.496311	-7384.569333	-7296.12348	-79569.796272	-82256.587715	-131644.041138	-51777.100775	0.028	0.9	0.258	192.0	0.0	0.0	0.0	0.0	0.0	0.0	0.0	0.0	0.0	1660672956.149982	0.0
509	253.0	-7246.65907	-7137.202577	-7357.836647	-7290.826117	-79568.186947	-82301.492369	-131651.976007	-51757.185371	0.028	0.9	0.258	192.0	0.0	0.0	0.0	0.0	0.0	0.0	0.0	0.0	0.0	1660672956.14999	0.0
510	254.0	-7269.033166	-7181.280217	-7315.323629	-7260.740669	-79573.037275	-82322.212436	-131666.839918	-51739.616899	0.028	0.9	0.258	192.0	0.0	0.0	0.0	0.0	0.0	0.0	0.0	0.0	0.0	1660672956.149997	0.0
511	255.0	-7227.078942	-7108.815862	-7337.161283	-7269.435497	-79570.578584	-82292.708134	-131657.563944	-51753.72085	0.028	0.9	0.258	192.0	0.0	0.0	0.0	0.0	0.0	0.0	0.0	0.0	0.0	1660672956.150003	0.0
512	0.0	-7191.003226	-7031.009439	-7381.797717	-7294.760024	-79568.701037	-82257.705302	-131643.191772	-51776.609037	0.028	0.9	0.258	192.0	0.0	0.0	0.0	0.0	0.0	0.0	0.0	0.0	0.0	1660672956.150012	0.0
513	1.0	-7236.15375	-7118.605926	-7366.196199	-7295.922315	-79566.599973	-82295.077419	-131647.617417	-51762.259217	0.028	0.9	0.258	192.0	0.0	0.0	0.0	0.0	0.0	0.0	0.0	0.0	0.0	1660672956.150018	0.0
514	2.0	-7270.731899	-7184.9012	-7319.257536	-7265.188666	-79572.389075	-82325.185218	-131665.252944	-51741.405039	0.028	0.9	0.258	192.0	0.0	0.0	0.0	0.0	0.0	0.0	0.0	0.0	0.0	1660672956.150025	0.0
515	3.0	-7238.925366	-7129.848853	-7330.96985	-7267.468544	-79572.813758	-82304.286337	-131661.542554	-51751.686841	0.028	0.9	0.258	192.0	0.0	0.0	0.0	0.0	0.0	0.0	0.0	0.0	0.0	1660672956.150031	0.0
516	4.0	-7194.870078	-7035.748009	-7379.517839	-7293.865954	-79571.584412	-82263.4497	-131646.611589	-51777.346644	0.024	0.904	0.258	192.0	0.0	192.0	28.0	64.0	8.0	16.0	0.0	0.0	0.0	1660672956.150038	0.0
517	5.0	-7229.314116	-7100.925696	-7375.785098	-7301.018512	-79569.058665	-82290.025924	-131647.103327	-51769.277664	0.024	0.904	0.258	192.0	0.0	0.0	0.0	0.0	0.0	0.0	0.0	0.0	0.0	1660672956.150044	0.0
518	6.0	-7272.564742	-7184.945903	-7326.588908	-7271.380099	-79573.551366	-82327.241579	-131664.604743	-51745.048373	0.024	0.904	0.258	192.0	0.0	0.0	0.0	0.0	0.0	0.0	0.0	0.0	0.0	1660672956.150052	0.0
519	7.0	-7251.889378	-7148.959595	-7327.617088	-7266.350957	-79576.837072	-82314.746954	-131666.839918	-51750.882179	0.024	0.904	0.258	192.0	0.0	0.0	0.0	0.0	0.0	0.0	0.0	0.0	0.0	1660672956.150059	0.0
520	8.0	-7199.429834	-7044.062858	-7373.751089	-7289.216791	-79572.612592	-82268.121215	-131648.645598	-51774.284455	0.024	0.904	0.258	192.0	0.0	0.0	0.0	0.0	0.0	0.0	0.0	0.0	0.0	1660672956.150065	0.0
521	9.0	-7218.808796	-7078.5516	-7381.015406	-7300.392664	-79568.902203	-82280.191157	-131643.884676	-51771.669301	0.024	0.904	0.258	192.0	0.0	0.0	0.0	0.0	0.0	0.0	0.0	0.0	0.0	1660672956.150071	0.0
522	10.0	-7270.217809	-7177.525124	-7333.92028	-7275.202248	-79572.813758	-82323.754707	-131661.117871	-51746.344775	0.024	0.904	0.258	192.0	0.0	0.0	0.0	0.0	0.0	0.0	0.0	0.0	0.0	1660672956.150078	0.0
523	11.0	-7260.092468	-7161.029537	-7322.029152	-7261.500628	-79577.127645	-82318.814971	-131667.354008	-51745.718926	0.024	0.904	0.258	192.0	0.0	0.0	0.0	0.0	0.0	0.0	0.0	0.0	0.0	1660672956.150085	0.0
524	12.0	-7207.565869	-7057.250387	-7366.956159	-7284.07589	-79574.154863	-82274.446759	-131651.461917	-51769.545885	0.024	0.904	0.258	192.0	0.0	0.0	0.0	0.0	0.0	0.0	0.0	0.0	0.0	1660672956.150091	0.0
525	13.0	-7211.365665	-7058.926768	-7385.575162	-7299.118614	-79570.623287	-82271.608087	-131643.191772	-51773.70331	0.024	0.904	0.258	192.0	0.0	0.0	0.0	0.0	0.0	0.0	0.0	0.0	0.0	1660672956.150099	0.0
526	14.0	-7266.507419	-7166.818639	-7342.235129	-7278.890285	-79572.701999	-82318.591454	-131658.078034	-51748.088211	0.018	0.892	0.262	192.0	0.0	144.0	27.0	224.0	8.0	48.0	0.0	0.0	0.0	1660672956.150106	0.0
527	15.0	-7267.088564	-7169.813772	-7317.961135	-7257.253797	-79577.820549	-82321.74305	-131667.912801	-51741.248577	0.018	0.892	0.262	192.0	0.0	0.0	0.0	0.0	0.0	0.0	0.0	0.0	0.0	1660672956.150112	0.0
528	16.0	-7217.758264	-7074.438879	-7359.624786	-7278.487954	-79576.501796	-82282.292221	-131655.127603	-51764.114411	0.018	0.892	0.262	192.0	0.0	0.0	0.0	0.0	0.0	0.0	0.0	0.0	0.0	1660672956.150119	0.0
529	17.0	-7207.118834	-7046.767419	-7389.106737	-7297.933972	-79573.238441	-82266.042503	-131643.772917	-51774.73149	0.018	0.892	0.262	192.0	0.0	0.0	0.0	0.0	0.0	0.0	0.0	0.0	0.0	1660672956.150126	0.0
530	18.0	-7263.713451	-7156.71565	-7353.411001	-7284.902905	-79573.908993	-82313.495256	-131656.066377	-51750.815123	0.018	0.892	0.262	192.0	0.0	0.0	0.0	0.0	0.0	0.0	0.0	0.0	0.0	1660672956.150132	0.0
531	19.0	-7277.079794	-7180.475555	-7319.995143	-7258.147867	-79580.256889	-82325.07346	-131669.745644	-51738.007574	0.018	0.892	0.262	192.0	0.0	0.0	0.0	0.0	0.0	0.0	0.0	0.0	0.0	1660672956.150139	0.0
532	20.0	-7230.923442	-7094.622504	-7352.293414	-7272.631797	-79577.395866	-82288.416599	-131657.251019	-51754.704327	0.018	0.892	0.262	192.0	0.0	0.0	0.0	0.0	0.0	0.0	0.0	0.0	0.0	1660672956.150146	0.0
533	21.0	-7208.236421	-7040.441876	-7391.632484	-7295.832908	-79575.473616	-82261.438043	-131644.421118	-51771.490487	0.018	0.892	0.262	192.0	0.0	0.0	0.0	0.0	0.0	0.0	0.0	0.0	0.0	1660672956.150153	0.0
534	22.0	-7262.014718	-7143.796342	-7365.860923	-7289.932047	-79574.914822	-82305.180407	-131653.183002	-51751.128048	0.018	0.892	0.262	192.0	0.0	0.0	0.0	0.0	0.0	0.0	0.0	0.0	0.0	1660672956.150161	0.0
535	23.0	-7284.96996	-7188.008092	-7322.565594	-7257.700832	-79579.474578	-82323.642948	-131667.555173	-51731.078533	0.018	0.892	0.262	192.0	0.0	0.0	0.0	0.0	0.0	0.0	0.0	0.0	0.0	1660672956.150167	0.0
536	24.0	-7245.049744	-7116.549565	-7344.604414	-7265.613349	-79576.993534	-82293.17752	-131658.256848	-51742.813199	0.024	0.898	0.262	192.0	0.0	192.0	28.0	16.0	8.0	48.0	0.0	0.0	0.0	1660672956.150174	0.0
537	25.0	-7209.979857	-7038.027887	-7389.509069	-7290.267323	-79574.467787	-82256.073625	-131642.811792	-51762.974472	0.024	0.898	0.262	192.0	0.0	0.0	0.0	0.0	0.0	0.0	0.0	0.0	0.0	1660672956.15018	0.0
538	26.0	-7257.320852	-7127.099589	-7375.695691	-7292.27898	-79573.774883	-82293.579852	-131648.556191	-51748.065859	0.024	0.898	0.262	192.0	0.0	0.0	0.0	0.0	0.0	0.0	0.0	0.0	0.0	1660672956.150186	0.0
539	27.0	-7290.334379	-7191.584372	-7326.074818	-7258.170218	-79576.725313	-82320.178428	-131663.420101	-51722.517815	0.024	0.898	0.262	192.0	0.0	0.0	0.0	0.0	0.0	0.0	0.0	0.0	0.0	1660672956.150194	0.0
540	28.0	-7260.450096	-7138.722496	-7338.211815	-7259.936006	-79576.837072	-82298.29607	-131659.530897	-51730.13976	0.024	0.898	0.262	192.0	0.0	0.0	0.0	0.0	0.0	0.0	0.0	0.0	0.0	1660672956.150201	0.0
541	29.0	-7216.305401	-7045.202797	-7385.03872	-7284.008835	-79573.171386	-82254.240782	-131642.185943	-51750.703365	0.024	0.898	0.262	192.0	0.0	0.0	0.0	0.0	0.0	0.0	0.0	0.0	0.0	1660672956.150207	0.0
542	30.0	-7252.93991	-7111.140443	-7382.937656	-7292.234277	-79572.009095	-82280.906413	-131643.772917	-51741.829722	0.024	0.898	0.262	192.0	0.0	0.0	0.0	0.0	0.0	0.0	0.0	0.0	0.0	1660672956.150214	0.0
543	31.0	-7298.068082	-7196.412348	-7333.473245	-7261.970015	-79576.613555	-82317.675032	-131661.319037	-51715.298201	0.024	0.898	0.262	192.0	0.0	0.0	0.0	0.0	0.0	0.0	0.0	0.0	0.0	1660672956.15022	0.0
544	32.0	-7277.41507	-7161.431868	-7332.020382	-7254.415125	-79577.261755	-82302.565253	-131660.98376	-51715.946402	0.024	0.898	0.262	192.0	0.0	0.0	0.0	0.0	0.0	0.0	0.0	0.0	0.0	1660672956.150227	0.0
545	33.0	-7227.905956	-7060.290225	-7379.227266	-7278.197381	-79572.858461	-82255.872459	-131642.767089	-51736.577062	0.024	0.898	0.262	192.0	0.0	0.0	0.0	0.0	0.0	0.0	0.0	0.0	0.0	1660672956.150234	0.0
546	34.0	-7249.385983	-7096.74592	-7387.318598	-7289.730881	-79569.460996	-82267.584773	-131638.363795	-51732.129065	0.022	0.906	0.26	192.0	0.0	176.0	28.0	80.0	8.0	32.0	0.0	0.0	0.0	1660672956.150267	0.0
547	35.0	-7302.1361	-7197.284066	-7339.508216	-7263.467582	-79573.3502	-82310.72364	-131655.798156	-51705.016399	0.022	0.906	0.26	192.0	0.0	0.0	0.0	0.0	0.0	0.0	0.0	0.0	0.0	1660672956.150274	0.0
548	36.0	-7294.245934	-7182.755432	-7327.661792	-7249.497741	-79577.909956	-82305.515683	-131662.347217	-51701.685989	0.022	0.906	0.26	192.0	0.0	0.0	0.0	0.0	0.0	0.0	0.0	0.0	0.0	1660672956.15028	0.0
549	37.0	-7244.602709	-7081.88201	-7373.706385	-7272.788259	-79575.093636	-82260.700436	-131646.164554	-51722.517815	0.022	0.906	0.26	192.0	0.0	0.0	0.0	0.0	0.0	0.0	0.0	0.0	0.0	1660672956.150287	0.0
550	38.0	-7253.074021	-7089.034568	-7395.387577	-7290.647303	-79574.199566	-82260.163994	-131640.464859	-51727.010516	0.022	0.906	0.26	192.0	0.0	0.0	0.0	0.0	0.0	0.0	0.0	0.0	0.0	1660672956.150294	0.0
551	39.0	-7311.121501	-7199.966276	-7352.87456	-7271.067175	-79577.820549	-82308.376707	-131657.407481	-51701.216602	0.022	0.906	0.26	192.0	0.0	0.0	0.0	0.0	0.0	0.0	0.0	0.0	0.0	1660672956.150301	0.0
552	40.0	-7311.277963	-7201.82147	-7326.365391	-7246.770829	-79581.083903	-82308.354355	-131665.655275	-51689.951323	0.022	0.906	0.26	192.0	0.0	0.0	0.0	0.0	0.0	0.0	0.0	0.0	0.0	1660672956.150309	0.0
553	41.0	-7260.807724	-7104.658437	-7364.989205	-7264.585169	-79576.501796	-82264.567288	-131649.472612	-51706.715132	0.022	0.906	0.26	192.0	0.0	0.0	0.0	0.0	0.0	0.0	0.0	0.0	0.0	1660672956.150316	0.0
554	42.0	-7252.291709	-7078.283379	-7395.02995	-7284.187649	-79574.24427	-82248.58579	-131639.011996	-51716.013457	0.022	0.906	0.26	192.0	0.0	0.0	0.0	0.0	0.0	0.0	0.0	0.0	0.0	1660672956.150323	0.0
555	43.0	-7309.467472	-7188.298665	-7358.864827	-7270.173105	-79575.65243	-82295.85973	-131652.020711	-51691.672408	0.022	0.898	0.256	192.0	0.0	176.0	28.0	16.0	8.0	0.0	0.0	0.0	0.0	1660672956.150331	0.0
556	44.0	-7321.738579	-7211.991514	-7322.744408	-7240.646451	-79580.592165	-82305.47098	-131664.649447	-51676.026186	0.022	0.898	0.256	192.0	0.0	0.0	0.0	0.0	0.0	0.0	0.0	0.0	0.0	1660672956.150338	0.0
557	45.0	-7277.102146	-7127.904252	-7355.221493	-7255.443305	-79578.22288	-82268.657657	-131652.825374	-51691.247724	0.022	0.898	0.256	192.0	0.0	0.0	0.0	0.0	0.0	0.0	0.0	0.0	0.0	1660672956.150345	0.0
558	46.0	-7252.962262	-7071.533152	-7392.660665	-7276.588056	-79574.646601	-82238.929837	-131638.29674	-51704.524661	0.022	0.898	0.256	192.0	0.0	0.0	0.0	0.0	0.0	0.0	0.0	0.0	0.0	1660672956.150352	0.0
559	47.0	-7307.098187	-7174.39588	-7367.067917	-7270.866009	-79575.518319	-82283.141587	-131648.466784	-51684.832774	0.022	0.898	0.256	192.0	0.0	0.0	0.0	0.0	0.0	0.0	0.0	0.0	0.0	1660672956.150361	0.0
560	48.0	-7331.48394	-7219.769921	-7324.107864	-7239.081828	-79581.799159	-82303.16875	-131664.716502	-51665.610274	0.022	0.898	0.256	192.0	0.0	0.0	0.0	0.0	0.0	0.0	0.0	0.0	0.0	1660672956.150368	0.0
561	49.0	-7292.167222	-7149.138409	-7346.101981	-7247.150808	-79579.340467	-82272.122177	-131655.328769	-51675.713262	0.022	0.898	0.256	192.0	0.0	0.0	0.0	0.0	0.0	0.0	0.0	0.0	0.0	1660672956.150375	0.0
562	50.0	-7257.320852	-7072.02489	-7391.654836	-7272.631797	-79576.81472	-82234.660653	-131639.749603	-51694.533431	0.022	0.898	0.256	192.0	0.0	0.0	0.0	0.0	0.0	0.0	0.0	0.0	0.0	1660672956.150382	0.0
563	51.0	-7304.751254	-7161.275406	-7378.802583	-7275.738689	-79577.373514	-82273.30682	-131646.768051	-51681.278846	0.022	0.898	0.256	192.0	0.0	0.0	0.0	0.0	0.0	0.0	0.0	0.0	0.0	1660672956.150388	0.0
564	52.0	-7339.55292	-7226.810721	-7331.126312	-7243.619233	-79583.252023	-82302.364087	-131664.761205	-51658.591826	0.022	0.898	0.256	192.0	0.0	0.0	0.0	0.0	0.0	0.0	0.0	0.0	0.0	1660672956.150395	0.0
565	53.0	-7308.215774	-7172.630092	-7340.916376	-7243.820398	-79581.776808	-82278.537128	-131659.06151	-51663.50921	0.024	0.9	0.264	192.0	0.0	192.0	28.0	32.0	8.0	64.0	0.0	0.0	0.0	1660672956.150402	0.0
566	54.0	-7265.903922	-7081.546734	-7390.581952	-7271.447154	-79580.14513	-82236.761717	-131643.370586	-51685.950361	0.024	0.9	0.264	192.0	0.0	0.0	0.0	0.0	0.0	0.0	0.0	0.0	0.0	1660672956.150411	0.0
567	55.0	-7300.191498	-7145.830351	-7387.60917	-7278.867934	-79577.70879	-82262.42152	-131643.5494	-51676.406166	0.024	0.9	0.264	192.0	0.0	0.0	0.0	0.0	0.0	0.0	0.0	0.0	0.0	1660672956.150418	0.0
568	56.0	-7345.386725	-7232.018677	-7338.837664	-7249.944776	-79583.497892	-82301.067686	-131662.682493	-51652.24393	0.024	0.9	0.264	192.0	0.0	0.0	0.0	0.0	0.0	0.0	0.0	0.0	0.0	1660672956.150425	0.0
569	57.0	-7322.967925	-7195.92061	-7335.931937	-7241.942852	-79583.184967	-82285.242651	-131661.207278	-51652.020413	0.024	0.9	0.264	192.0	0.0	0.0	0.0	0.0	0.0	0.0	0.0	0.0	0.0	1660672956.150432	0.0
570	58.0	-7275.135192	-7096.567106	-7385.284589	-7268.809649	-79580.949793	-82240.829735	-131644.801097	-51674.573323	0.024	0.9	0.264	192.0	0.0	0.0	0.0	0.0	0.0	0.0	0.0	0.0	0.0	1660672956.150439	0.0
571	59.0	-7298.358655	-7135.213272	-7396.57222	-7284.321759	-79580.726276	-82256.364197	-131643.638807	-51674.349806	0.024	0.9	0.264	192.0	0.0	0.0	0.0	0.0	0.0	0.0	0.0	0.0	0.0	1660672956.150446	0.0
572	60.0	-7350.527626	-7236.53373	-7348.806542	-7259.265454	-79585.084866	-82302.051163	-131661.855479	-51649.449962	0.024	0.9	0.264	192.0	0.0	0.0	0.0	0.0	0.0	0.0	0.0	0.0	0.0	1660672956.150454	0.0
573	61.0	-7342.928033	-7224.352029	-7337.429504	-7247.17316	-79590.069305	-82298.899567	-131668.940982	-51648.153561	0.024	0.9	0.264	192.0	0.0	0.0	0.0	0.0	0.0	0.0	0.0	0.0	0.0	1660672956.150461	0.0
574	62.0	-7294.06712	-7126.563147	-7384.681092	-7273.391756	-79588.012944	-82256.52066	-131653.67474	-51670.639416	0.024	0.9	0.264	192.0	0.0	0.0	0.0	0.0	0.0	0.0	0.0	0.0	0.0	1660672956.150468	0.0
575	63.0	-7298.448062	-7130.027667	-7403.23304	-7289.507364	-79583.98963	-82254.464299	-131644.912856	-51673.567495	0.018	0.896	0.264	192.0	0.0	144.0	28.0	0.0	8.0	64.0	0.0	0.0	0.0	1660672956.150474	0.0
576	64.0	-7353.52276	-7238.321869	-7358.708365	-7269.256683	-79586.202453	-82303.056991	-131660.290856	-51648.980576	0.018	0.896	0.264	192.0	0.0	0.0	0.0	0.0	0.0	0.0	0.0	0.0	0.0	1660672956.150483	0.0
577	65.0	-7354.260368	-7243.440419	-7332.154492	-7246.927291	-79590.046953	-82306.096829	-131669.142147	-51639.726953	0.018	0.896	0.264	192.0	0.0	0.0	0.0	0.0	0.0	0.0	0.0	0.0	0.0	1660672956.15049	0.0
578	66.0	-7305.645323	-7151.440638	-7372.521743	-7268.742593	-79586.649488	-82266.578945	-131654.255885	-51659.038861	0.018	0.896	0.264	192.0	0.0	0.0	0.0	0.0	0.0	0.0	0.0	0.0	0.0	1660672956.150497	0.0
579	67.0	-7297.866916	-7127.680734	-7404.618848	-7292.122518	-79585.151921	-82254.129023	-131644.644635	-51671.265265	0.018	0.896	0.264	192.0	0.0	0.0	0.0	0.0	0.0	0.0	0.0	0.0	0.0	1660672956.150505	0.0
580	68.0	-7356.830818	-7241.629927	-7371.068879	-7282.66773	-79588.772904	-82306.655622	-131660.022635	-51651.796895	0.018	0.896	0.264	192.0	0.0	0.0	0.0	0.0	0.0	0.0	0.0	0.0	0.0	1660672956.150512	0.0
581	69.0	-7371.538266	-7270.038995	-7336.557786	-7257.119686	-79595.277261	-82321.452477	-131674.215993	-51639.615195	0.018	0.896	0.264	192.0	0.0	0.0	0.0	0.0	0.0	0.0	0.0	0.0	0.0	1660672956.150519	0.0
582	70.0	-7331.86392	-7193.596029	-7373.50522	-7278.934989	-79595.992517	-82291.657602	-131665.319999	-51659.530599	0.018	0.896	0.264	192.0	0.0	0.0	0.0	0.0	0.0	0.0	0.0	0.0	0.0	1660672956.150526	0.0
583	71.0	-7311.948515	-7144.846874	-7415.682961	-7307.478167	-79594.718468	-82268.501195	-131652.914781	-51677.367291	0.018	0.896	0.264	192.0	0.0	0.0	0.0	0.0	0.0	0.0	0.0	0.0	0.0	1660672956.150532	0.0
584	72.0	-7365.81622	-7251.598805	-7390.358435	-7304.594791	-79593.511473	-82315.909245	-131661.140223	-51658.703585	0.018	0.896	0.264	192.0	0.0	0.0	0.0	0.0	0.0	0.0	0.0	0.0	0.0	1660672956.150539	0.0
585	73.0	-7392.168926	-7302.583134	-7349.67826	-7277.996216	-79599.300575	-82340.540867	-131677.077016	-51642.006831	0.012	0.898	0.256	192.0	0.0	96.0	28.0	16.0	8.0	0.0	0.0	0.0	0.0	1660672956.150546	0.0
586	74.0	-7356.204969	-7239.305346	-7375.271007	-7292.860126	-79597.44538	-82315.529265	-131668.113967	-51655.373175	0.012	0.898	0.256	192.0	0.0	0.0	0.0	0.0	0.0	0.0	0.0	0.0	0.0	1660672956.150554	0.0
587	75.0	-7323.906699	-7168.24915	-7424.556604	-7324.979582	-79595.545482	-82283.834491	-131652.937132	-51676.763794	0.012	0.898	0.256	192.0	0.0	0.0	0.0	0.0	0.0	0.0	0.0	0.0	0.0	1660672956.150562	0.0
588	76.0	-7370.420679	-7259.332509	-7412.509014	-7331.573347	-79593.824398	-82325.140515	-131657.452185	-51664.313872	0.012	0.898	0.256	192.0	0.0	0.0	0.0	0.0	0.0	0.0	0.0	0.0	0.0	1660672956.150569	0.0
589	77.0	-7405.870546	-7329.114655	-7365.637406	-7303.141928	-79598.630023	-82358.198745	-131674.283048	-51643.571454	0.012	0.898	0.256	192.0	0.0	0.0	0.0	0.0	0.0	0.0	0.0	0.0	0.0	1660672956.150576	0.0
590	78.0	-7376.746223	-7280.3655	-7377.506182	-7307.701684	-79598.004174	-82339.177411	-131669.611534	-51651.439268	0.012	0.898	0.256	192.0	0.0	0.0	0.0	0.0	0.0	0.0	0.0	0.0	0.0	1660672956.150583	0.0
591	79.0	-7334.546129	-7191.494965	-7427.574089	-7337.563615	-79595.254909	-82299.279547	-131652.713615	-51674.170992	0.012	0.898	0.256	192.0	0.0	0.0	0.0	0.0	0.0	0.0	0.0	0.0	0.0	1660672956.15059	0.0
592	80.0	-7372.678205	-7261.053593	-7428.579918	-7350.70644	-79595.701944	-82330.594341	-131655.865211	-51669.387718	0.012	0.898	0.256	192.0	0.0	0.0	0.0	0.0	0.0	0.0	0.0	0.0	0.0	1660672956.150596	0.0
593	81.0	-7420.309773	-7350.795847	-7381.462441	-7324.82312	-79602.228654	-82372.816786	-131675.288877	-51647.415954	0.012	0.898	0.256	192.0	0.0	0.0	0.0	0.0	0.0	0.0	0.0	0.0	0.0	1660672956.150605	0.0
594	82.0	-7405.937601	-7324.957231	-7385.150479	-7324.957231	-79606.654299	-82364.993675	-131678.395769	-51652.825076	0.012	0.898	0.256	192.0	0.0	0.0	0.0	0.0	0.0	0.0	0.0	0.0	0.0	1660672956.150612	0.0
595	83.0	-7361.144705	-7231.973974	-7436.850063	-7355.936748	-79604.083848	-82323.598245	-131661.587258	-51675.959131	0.014	0.9	0.254	192.0	0.0	112.0	28.0	32.0	7.0	240.0	0.0	0.0	0.0	1660672956.150619	0.0
596	84.0	-7383.295284	-7270.351919	-7447.31068	-7371.538266	-79601.088715	-82338.395099	-131657.228667	-51674.618027	0.014	0.9	0.254	192.0	0.0	0.0	0.0	0.0	0.0	0.0	0.0	0.0	0.0	1660672956.150625	0.0
597	85.0	-7437.520616	-7373.706385	-7400.439072	-7348.225397	-79605.559064	-82386.183129	-131675.177118	-51650.209922	0.014	0.9	0.254	192.0	0.0	0.0	0.0	0.0	0.0	0.0	0.0	0.0	0.0	1660672956.150632	0.0
598	86.0	-7433.005563	-7366.017385	-7390.023159	-7338.547091	-79611.459924	-82386.049019	-131682.799063	-51649.829942	0.014	0.9	0.254	192.0	0.0	0.0	0.0	0.0	0.0	0.0	0.0	0.0	0.0	1660672956.15064	0.0
599	87.0	-7388.123261	-7274.643454	-7440.158122	-7369.28074	-79610.789372	-82347.827536	-131668.516298	-51674.036881	0.014	0.9	0.254	192.0	0.0	0.0	0.0	0.0	0.0	0.0	0.0	0.0	0.0	1660672956.150649	0.0
600	88.0	-7397.622752	-7284.45587	-7464.499171	-7392.414795	-79609.560026	-82351.202649	-131662.078996	-51681.189439	0.014	0.9	0.254	192.0	0.0	0.0	0.0	0.0	0.0	0.0	0.0	0.0	0.0	1660672956.150656	0.0
601	89.0	-7457.681889	-7399.701464	-7424.24368	-7377.796755	-79613.650395	-82404.869187	-131679.222784	-51659.329433	0.014	0.9	0.254	192.0	0.0	0.0	0.0	0.0	0.0	0.0	0.0	0.0	0.0	1660672956.150663	0.0
